time [s] Activity [arb units]
0.0000 0.0000
0.0167 0.3172
0.0333 0.6011
0.0500 0.8545
0.0667 1.0802
0.0833 1.2806
0.1000 1.4580
0.1167 1.6146
0.1333 1.7521
0.1500 1.8724
0.1667 1.9771
0.1833 2.0677
0.2000 2.1454
0.2167 2.2115
0.2333 2.2672
0.2500 2.3135
0.2667 2.3513
0.2833 2.3815
0.3000 2.4048
0.3167 2.4220
0.3333 2.4338
0.3500 2.4406
0.3667 2.4432
0.3833 2.4418
0.4000 2.4371
0.4167 2.4294
0.4333 2.4190
0.4500 2.4064
0.4667 2.3918
0.4833 2.3754
0.5000 2.3576
0.5167 2.3384
0.5333 2.3183
0.5500 2.2972
0.5667 2.2755
0.5833 2.2532
0.6000 2.2304
0.6167 2.2073
0.6333 2.1839
0.6500 2.1604
0.6667 2.1369
0.6833 2.1134
0.7000 2.0899
0.7167 2.0666
0.7333 2.0434
0.7500 2.0205
0.7667 1.9978
0.7833 1.9754
0.8000 1.9533
0.8167 1.9315
0.8333 1.9101
0.8500 1.8891
0.8667 1.8684
0.8833 1.8480
0.9000 1.8281
0.9167 1.8086
0.9333 1.7894
0.9500 1.7707
0.9667 1.7523
0.9833 1.7343
1.0000 1.7167
1.0167 1.6995
1.0333 1.6827
1.0500 1.6662
1.0667 1.6501
1.0833 1.6344
1.1000 1.6190
1.1167 1.6040
1.1333 1.5892
1.1500 1.5748
1.1667 1.5608
1.1833 1.5470
1.2000 1.5336
1.2167 1.5204
1.2333 1.5075
1.2500 1.4949
1.2667 1.4826
1.2833 1.4705
1.3000 1.4587
1.3167 1.4471
1.3333 1.4358
1.3500 1.4247
1.3667 1.4138
1.3833 1.4031
1.4000 1.3926
1.4167 1.3824
1.4333 1.3723
1.4500 1.3625
1.4667 1.3528
1.4833 1.3433
1.5000 1.3339
1.5167 1.3248
1.5333 1.3158
1.5500 1.3069
1.5667 1.2982
1.5833 1.2896
1.6000 1.2812
1.6167 1.2730
1.6333 1.2648
1.6500 1.2568
1.6667 1.2489
1.6833 1.2411
1.7000 1.2335
1.7167 1.2259
1.7333 1.2185
1.7500 1.2112
1.7667 1.2040
1.7833 1.1969
1.8000 1.1898
1.8167 1.1829
1.8333 1.1761
1.8500 1.1693
1.8667 1.1627
1.8833 1.1561
1.9000 1.1496
1.9167 1.1432
1.9333 1.1369
1.9500 1.1306
1.9667 1.1245
1.9833 1.1184
2.0000 1.1123
2.0167 1.1064
2.0333 1.1005
2.0500 1.0947
2.0667 1.0889
2.0833 1.0832
2.1000 1.0776
2.1167 1.0720
2.1333 1.0665
2.1500 1.0610
2.1667 1.0556
2.1833 1.0502
2.2000 1.0450
2.2167 1.0397
2.2333 1.0345
2.2500 1.0294
2.2667 1.0243
2.2833 1.0193
2.3000 1.0143
2.3167 1.0094
2.3333 1.0045
2.3500 0.9996
2.3667 0.9948
2.3833 0.9901
2.4000 0.9854
2.4167 0.9807
2.4333 0.9761
2.4500 0.9715
2.4667 0.9670
2.4833 0.9625
2.5000 0.9581
2.5167 0.9536
2.5333 0.9493
2.5500 0.9449
2.5667 0.9406
2.5833 0.9364
2.6000 0.9322
2.6167 0.9280
2.6333 0.9238
2.6500 0.9197
2.6667 0.9157
2.6833 0.9116
2.7000 0.9076
2.7167 0.9037
2.7333 0.8997
2.7500 0.8958
2.7667 0.8920
2.7833 0.8881
2.8000 0.8843
2.8167 0.8806
2.8333 0.8768
2.8500 0.8731
2.8667 0.8695
2.8833 0.8658
2.9000 0.8622
2.9167 0.8586
2.9333 0.8551
2.9500 0.8516
2.9667 0.8481
2.9833 0.8446
3.0000 0.8412
3.0167 0.8378
3.0333 0.8344
3.0500 0.8310
3.0667 0.8277
3.0833 0.8244
3.1000 0.8212
3.1167 0.8179
3.1333 0.8147
3.1500 0.8115
3.1667 0.8084
3.1833 0.8052
3.2000 0.8021
3.2167 0.7991
3.2333 0.7960
3.2500 0.7930
3.2667 0.7900
3.2833 0.7870
3.3000 0.7840
3.3167 0.7811
3.3333 0.7782
3.3500 0.7753
3.3667 0.7725
3.3833 0.7696
3.4000 0.7668
3.4167 0.7640
3.4333 0.7612
3.4500 0.7585
3.4667 0.7558
3.4833 0.7531
3.5000 0.7504
3.5167 0.7477
3.5333 0.7451
3.5500 0.7425
3.5667 0.7399
3.5833 0.7373
3.6000 0.7348
3.6167 0.7323
3.6333 0.7297
3.6500 0.7273
3.6667 0.7248
3.6833 0.7223
3.7000 0.7199
3.7167 0.7175
3.7333 0.7151
3.7500 0.7128
3.7667 0.7104
3.7833 0.7081
3.8000 0.7058
3.8167 0.7035
3.8333 0.7012
3.8500 0.6989
3.8667 0.6967
3.8833 0.6945
3.9000 0.6923
3.9167 0.6901
3.9333 0.6879
3.9500 0.6858
3.9667 0.6836
3.9833 0.6815
4.0000 0.6794
4.0167 0.6774
4.0333 0.6753
4.0500 0.6732
4.0667 0.6712
4.0833 0.6692
4.1000 0.6672
4.1167 0.6652
4.1333 0.6633
4.1500 0.6613
4.1667 0.6594
4.1833 0.6575
4.2000 0.6556
4.2167 0.6537
4.2333 0.6518
4.2500 0.6499
4.2667 0.6481
4.2833 0.6463
4.3000 0.6445
4.3167 0.6427
4.3333 0.6409
4.3500 0.6391
4.3667 0.6374
4.3833 0.6356
4.4000 0.6339
4.4167 0.6322
4.4333 0.6305
4.4500 0.6288
4.4667 0.6271
4.4833 0.6255
4.5000 0.6238
4.5167 0.6222
4.5333 0.6206
4.5500 0.6189
4.5667 0.6174
4.5833 0.6158
4.6000 0.6142
4.6167 0.6127
4.6333 0.6111
4.6500 0.6096
4.6667 0.6081
4.6833 0.6066
4.7000 0.6051
4.7167 0.6036
4.7333 0.6021
4.7500 0.6006
4.7667 0.5992
4.7833 0.5978
4.8000 0.5963
4.8167 0.5949
4.8333 0.5935
4.8500 0.5921
4.8667 0.5908
4.8833 0.5894
4.9000 0.5880
4.9167 0.5867
4.9333 0.5853
4.9500 0.5840
4.9667 0.5827
4.9833 0.5814
5.0000 0.5801
5.0167 0.5788
5.0333 0.5776
5.0500 0.5763
5.0667 0.5750
5.0833 0.5738
5.1000 0.5726
5.1167 0.5713
5.1333 0.5701
5.1500 0.5689
5.1667 0.5677
5.1833 0.5665
5.2000 0.5654
5.2167 0.5642
5.2333 0.5742
5.2500 0.5842
5.2667 0.5942
5.2833 0.6042
5.3000 0.6142
5.3167 0.6242
5.3333 0.6342
5.3500 0.6442
5.3667 0.6542
5.3833 0.6642
5.4000 0.6742
5.4167 0.6842
5.4333 0.6942
5.4500 0.7042
5.4667 0.7142
5.4833 0.5467
5.5000 0.5457
5.5167 0.5447
5.5333 0.5437
5.5500 0.5427
5.5667 0.5417
5.5833 0.5407
5.6000 0.5397
5.6167 0.5388
5.6333 0.5378
5.6500 0.5369
5.6667 0.5359
5.6833 0.5350
5.7000 0.5341
5.7167 0.5331
5.7333 0.5431
5.7500 0.5531
5.7667 0.5631
5.7833 0.5731
5.8000 0.5831
5.8167 0.5931
5.8333 0.6031
5.8500 0.6131
5.8667 0.6231
5.8833 0.6331
5.9000 0.6431
5.9167 0.6531
5.9333 0.6631
5.9500 0.6731
5.9667 0.6831
5.9833 0.5193
6.0000 0.5185
6.0167 0.5177
6.0333 0.5169
6.0500 0.5161
6.0667 0.5154
6.0833 0.5146
6.1000 0.5138
6.1167 0.5130
6.1333 0.5123
6.1500 0.5115
6.1667 0.5108
6.1833 0.5100
6.2000 0.5093
6.2167 0.5086
6.2333 0.5186
6.2500 0.5286
6.2667 0.5386
6.2833 0.5486
6.3000 0.5586
6.3167 0.5686
6.3333 0.5786
6.3500 0.5886
6.3667 0.5986
6.3833 0.6086
6.4000 0.6186
6.4167 0.6286
6.4333 0.6386
6.4500 0.6486
6.4667 0.6586
6.4833 0.4976
6.5000 0.4970
6.5167 0.4964
6.5333 0.4957
6.5500 0.4951
6.5667 0.4945
6.5833 0.4939
6.6000 0.4932
6.6167 0.4926
6.6333 0.4920
6.6500 0.4914
6.6667 0.4908
6.6833 0.4903
6.7000 0.4897
6.7167 0.4891
6.7333 0.4991
6.7500 0.5091
6.7667 0.5191
6.7833 0.5291
6.8000 0.5391
6.8167 0.5491
6.8333 0.5591
6.8500 0.5691
6.8667 0.5791
6.8833 0.5891
6.9000 0.5991
6.9167 0.6091
6.9333 0.6191
6.9500 0.6291
6.9667 0.6391
6.9833 0.4804
7.0000 0.4798
7.0167 0.4793
7.0333 0.4788
7.0500 0.4783
7.0667 0.4778
7.0833 0.4773
7.1000 0.4769
7.1167 0.4764
7.1333 0.4759
7.1500 0.4754
7.1667 0.4749
7.1833 0.4745
7.2000 0.4740
7.2167 0.4735
7.2333 0.4835
7.2500 0.4935
7.2667 0.5035
7.2833 0.5135
7.3000 0.5235
7.3167 0.5335
7.3333 0.5435
7.3500 0.5535
7.3667 0.5635
7.3833 0.5735
7.4000 0.5835
7.4167 0.5935
7.4333 0.6035
7.4500 0.6135
7.4667 0.6235
7.4833 0.4665
7.5000 0.4661
7.5167 0.4657
7.5333 0.4653
7.5500 0.4649
7.5667 0.4645
7.5833 0.4641
7.6000 0.4637
7.6167 0.4633
7.6333 0.4629
7.6500 0.4626
7.6667 0.4622
7.6833 0.4618
7.7000 0.4614
7.7167 0.4610
7.7333 0.4710
7.7500 0.4810
7.7667 0.4910
7.7833 0.5010
7.8000 0.5110
7.8167 0.5210
7.8333 0.5310
7.8500 0.5410
7.8667 0.5510
7.8833 0.5610
7.9000 0.5710
7.9167 0.5810
7.9333 0.5910
7.9500 0.6010
7.9667 0.6110
7.9833 0.4554
8.0000 0.4551
8.0167 0.4547
8.0333 0.4544
8.0500 0.4541
8.0667 0.4538
8.0833 0.4534
8.1000 0.4531
8.1167 0.4528
8.1333 0.4525
8.1500 0.4522
8.1667 0.4519
8.1833 0.4516
8.2000 0.4513
8.2167 0.4510
8.2333 0.4610
8.2500 0.4710
8.2667 0.4810
8.2833 0.4910
8.3000 0.5010
8.3167 0.5110
8.3333 0.5210
8.3500 0.5310
8.3667 0.5410
8.3833 0.5510
8.4000 0.5610
8.4167 0.5710
8.4333 0.5810
8.4500 0.5910
8.4667 0.6010
8.4833 0.4464
8.5000 0.4461
8.5167 0.4458
8.5333 0.4456
8.5500 0.4453
8.5667 0.4450
8.5833 0.4448
8.6000 0.4445
8.6167 0.4442
8.6333 0.4440
8.6500 0.4437
8.6667 0.4435
8.6833 0.4432
8.7000 0.4430
8.7167 0.4427
8.7333 0.4527
8.7500 0.4627
8.7667 0.4727
8.7833 0.4827
8.8000 0.4927
8.8167 0.5027
8.8333 0.5127
8.8500 0.5227
8.8667 0.5327
8.8833 0.5427
8.9000 0.5527
8.9167 0.5627
8.9333 0.5727
8.9500 0.5827
8.9667 0.5927
8.9833 0.4390
9.0000 0.4387
9.0167 0.4385
9.0333 0.4383
9.0500 0.4381
9.0667 0.4379
9.0833 0.4376
9.1000 0.4374
9.1167 0.4372
9.1333 0.4370
9.1500 0.4368
9.1667 0.4366
9.1833 0.4364
9.2000 0.4362
9.2167 0.4360
9.2333 0.4460
9.2500 0.4560
9.2667 0.4660
9.2833 0.4760
9.3000 0.4860
9.3167 0.4960
9.3333 0.5060
9.3500 0.5160
9.3667 0.5260
9.3833 0.5360
9.4000 0.5460
9.4167 0.5560
9.4333 0.5660
9.4500 0.5760
9.4667 0.5860
9.4833 0.4328
9.5000 0.4326
9.5167 0.4325
9.5333 0.4323
9.5500 0.4321
9.5667 0.4319
9.5833 0.4317
9.6000 0.4315
9.6167 0.4314
9.6333 0.4312
9.6500 0.4310
9.6667 0.4308
9.6833 0.4307
9.7000 0.4305
9.7167 0.4303
9.7333 0.4403
9.7500 0.4503
9.7667 0.4603
9.7833 0.4703
9.8000 0.4803
9.8167 0.4903
9.8333 0.5003
9.8500 0.5103
9.8667 0.5203
9.8833 0.5303
9.9000 0.5403
9.9167 0.5503
9.9333 0.5603
9.9500 0.5703
9.9667 0.5803
9.9833 0.4277
10.0000 0.4275
10.0167 0.4274
10.0333 0.4272
10.0500 0.4271
10.0667 0.4269
10.0833 0.4268
10.1000 0.4266
10.1167 0.4265
10.1333 0.4263
10.1500 0.4262
10.1667 0.4260
10.1833 0.4259
10.2000 0.4257
10.2167 0.4256
10.2333 0.4356
10.2500 0.4456
10.2667 0.4556
10.2833 0.4656
10.3000 0.4756
10.3167 0.4856
10.3333 0.4956
10.3500 0.5056
10.3667 0.5156
10.3833 0.5256
10.4000 0.5356
10.4167 0.5456
10.4333 0.5556
10.4500 0.5656
10.4667 0.5756
10.4833 0.4233
10.5000 0.4232
10.5167 0.4231
10.5333 0.4229
10.5500 0.4228
10.5667 0.4227
10.5833 0.4225
10.6000 0.4224
10.6167 0.4223
10.6333 0.4221
10.6500 0.4220
10.6667 0.4219
10.6833 0.4218
10.7000 0.4216
10.7167 0.4215
10.7333 0.4315
10.7500 0.4415
10.7667 0.4515
10.7833 0.4615
10.8000 0.4715
10.8167 0.4815
10.8333 0.4915
10.8500 0.5015
10.8667 0.5115
10.8833 0.5215
10.9000 0.5315
10.9167 0.5415
10.9333 0.5515
10.9500 0.5615
10.9667 0.5715
10.9833 0.4196
11.0000 0.4194
11.0167 0.4193
11.0333 0.4192
11.0500 0.4191
11.0667 0.4190
11.0833 0.4189
11.1000 0.4188
11.1167 0.4186
11.1333 0.4185
11.1500 0.4184
11.1667 0.4183
11.1833 0.4182
11.2000 0.4181
11.2167 0.4180
11.2333 0.4280
11.2500 0.4380
11.2667 0.4480
11.2833 0.4580
11.3000 0.4680
11.3167 0.4780
11.3333 0.4880
11.3500 0.4980
11.3667 0.5080
11.3833 0.5180
11.4000 0.5280
11.4167 0.5380
11.4333 0.5480
11.4500 0.5580
11.4667 0.5680
11.4833 0.4163
11.5000 0.4162
11.5167 0.4161
11.5333 0.4160
11.5500 0.4159
11.5667 0.4158
11.5833 0.4157
11.6000 0.4156
11.6167 0.4155
11.6333 0.4154
11.6500 0.4153
11.6667 0.4152
11.6833 0.4151
11.7000 0.4150
11.7167 0.4149
11.7333 0.4249
11.7500 0.4349
11.7667 0.4449
11.7833 0.4549
11.8000 0.4649
11.8167 0.4749
11.8333 0.4849
11.8500 0.4949
11.8667 0.5049
11.8833 0.5149
11.9000 0.5249
11.9167 0.5349
11.9333 0.5449
11.9500 0.5549
11.9667 0.5649
11.9833 0.4134
12.0000 0.4133
12.0167 0.4132
12.0333 0.4131
12.0500 0.4130
12.0667 0.4129
12.0833 0.4128
12.1000 0.4127
12.1167 0.4126
12.1333 0.4125
12.1500 0.4125
12.1667 0.4124
12.1833 0.4123
12.2000 0.4122
12.2167 0.4121
12.2333 0.4221
12.2500 0.4321
12.2667 0.4421
12.2833 0.4521
12.3000 0.4621
12.3167 0.4721
12.3333 0.4821
12.3500 0.4921
12.3667 0.5021
12.3833 0.5121
12.4000 0.5221
12.4167 0.5321
12.4333 0.5421
12.4500 0.5521
12.4667 0.5621
12.4833 0.4107
12.5000 0.4107
12.5167 0.4106
12.5333 0.4105
12.5500 0.4104
12.5667 0.4103
12.5833 0.4102
12.6000 0.4102
12.6167 0.4101
12.6333 0.4100
12.6500 0.4099
12.6667 0.4098
12.6833 0.4098
12.7000 0.4097
12.7167 0.4096
12.7333 0.4196
12.7500 0.4296
12.7667 0.4396
12.7833 0.4496
12.8000 0.4596
12.8167 0.4696
12.8333 0.4796
12.8500 0.4896
12.8667 0.4996
12.8833 0.5096
12.9000 0.5196
12.9167 0.5296
12.9333 0.5396
12.9500 0.5496
12.9667 0.5596
12.9833 0.4083
13.0000 0.4083
13.0167 0.4082
13.0333 0.4081
13.0500 0.4080
13.0667 0.4080
13.0833 0.4079
13.1000 0.4078
13.1167 0.4077
13.1333 0.4077
13.1500 0.4076
13.1667 0.4075
13.1833 0.4074
13.2000 0.4074
13.2167 0.4073
13.2333 0.4173
13.2500 0.4273
13.2667 0.4373
13.2833 0.4473
13.3000 0.4573
13.3167 0.4673
13.3333 0.4773
13.3500 0.4873
13.3667 0.4973
13.3833 0.5073
13.4000 0.5173
13.4167 0.5273
13.4333 0.5373
13.4500 0.5473
13.4667 0.5573
13.4833 0.4061
13.5000 0.4060
13.5167 0.4060
13.5333 0.4059
13.5500 0.4058
13.5667 0.4058
13.5833 0.4057
13.6000 0.4056
13.6167 0.4055
13.6333 0.4055
13.6500 0.4054
13.6667 0.4053
13.6833 0.4053
13.7000 0.4052
13.7167 0.4051
13.7333 0.4151
13.7500 0.4251
13.7667 0.4351
13.7833 0.4451
13.8000 0.4551
13.8167 0.4651
13.8333 0.4751
13.8500 0.4851
13.8667 0.4951
13.8833 0.5051
13.9000 0.5151
13.9167 0.5251
13.9333 0.5351
13.9500 0.5451
13.9667 0.5551
13.9833 0.4040
14.0000 0.4040
14.0167 0.4039
14.0333 0.4038
14.0500 0.4038
14.0667 0.4037
14.0833 0.4036
14.1000 0.4036
14.1167 0.4035
14.1333 0.4034
14.1500 0.4034
14.1667 0.4033
14.1833 0.4032
14.2000 0.4032
14.2167 0.4031
14.2333 0.4131
14.2500 0.4231
14.2667 0.4331
14.2833 0.4431
14.3000 0.4531
14.3167 0.4631
14.3333 0.4731
14.3500 0.4831
14.3667 0.4931
14.3833 0.5031
14.4000 0.5131
14.4167 0.5231
14.4333 0.5331
14.4500 0.5431
14.4667 0.5531
14.4833 0.4021
14.5000 0.4020
14.5167 0.4019
14.5333 0.4019
14.5500 0.4018
14.5667 0.4017
14.5833 0.4017
14.6000 0.4016
14.6167 0.4015
14.6333 0.4015
14.6500 0.4014
14.6667 0.4014
14.6833 0.4013
14.7000 0.4012
14.7167 0.4012
14.7333 0.4112
14.7500 0.4212
14.7667 0.4312
14.7833 0.4412
14.8000 0.4512
14.8167 0.4612
14.8333 0.4712
14.8500 0.4812
14.8667 0.4912
14.8833 0.5012
14.9000 0.5112
14.9167 0.5212
14.9333 0.5312
14.9500 0.5412
14.9667 0.5512
14.9833 0.4002
15.0000 0.4001
15.0167 0.4000
15.0333 0.4000
15.0500 0.3999
15.0667 0.3999
15.0833 0.3998
15.1000 0.3997
15.1167 0.3997
15.1333 0.3996
15.1500 0.3996
15.1667 0.3995
15.1833 0.3994
15.2000 0.3994
15.2167 0.3993
15.2333 0.4093
15.2500 0.4193
15.2667 0.4293
15.2833 0.4393
15.3000 0.4493
15.3167 0.4593
15.3333 0.4693
15.3500 0.4793
15.3667 0.4893
15.3833 0.4993
15.4000 0.5093
15.4167 0.5193
15.4333 0.5293
15.4500 0.5393
15.4667 0.5493
15.4833 0.3984
15.5000 0.3983
15.5167 0.3982
15.5333 0.3982
15.5500 0.3981
15.5667 0.3981
15.5833 0.3980
15.6000 0.3979
15.6167 0.3979
15.6333 0.3978
15.6500 0.3978
15.6667 0.3977
15.6833 0.3976
15.7000 0.3976
15.7167 0.3975
15.7333 0.4075
15.7500 0.4175
15.7667 0.4275
15.7833 0.4375
15.8000 0.4475
15.8167 0.4575
15.8333 0.4675
15.8500 0.4775
15.8667 0.4875
15.8833 0.4975
15.9000 0.5075
15.9167 0.5175
15.9333 0.5275
15.9500 0.5375
15.9667 0.5475
15.9833 0.3966
16.0000 0.3965
16.0167 0.3965
16.0333 0.3964
16.0500 0.3964
16.0667 0.3963
16.0833 0.3962
16.1000 0.3962
16.1167 0.3961
16.1333 0.3961
16.1500 0.3960
16.1667 0.3960
16.1833 0.3959
16.2000 0.3958
16.2167 0.3958
16.2333 0.4058
16.2500 0.4158
16.2667 0.4258
16.2833 0.4358
16.3000 0.4458
16.3167 0.4558
16.3333 0.4658
16.3500 0.4758
16.3667 0.4858
16.3833 0.4958
16.4000 0.5058
16.4167 0.5158
16.4333 0.5258
16.4500 0.5358
16.4667 0.5458
16.4833 0.3949
16.5000 0.3948
16.5167 0.3948
16.5333 0.3947
16.5500 0.3947
16.5667 0.3946
16.5833 0.3945
16.6000 0.3945
16.6167 0.3944
16.6333 0.3944
16.6500 0.3943
16.6667 0.3943
16.6833 0.3942
16.7000 0.3941
16.7167 0.3941
16.7333 0.4041
16.7500 0.4141
16.7667 0.4241
16.7833 0.4341
16.8000 0.4441
16.8167 0.4541
16.8333 0.4641
16.8500 0.4741
16.8667 0.4841
16.8833 0.4941
16.9000 0.5041
16.9167 0.5141
16.9333 0.5241
16.9500 0.5341
16.9667 0.5441
16.9833 0.3932
17.0000 0.3931
17.0167 0.3931
17.0333 0.3930
17.0500 0.3930
17.0667 0.3929
17.0833 0.3929
17.1000 0.3928
17.1167 0.3928
17.1333 0.3927
17.1500 0.3926
17.1667 0.3926
17.1833 0.3925
17.2000 0.3925
17.2167 0.3924
17.2333 0.4024
17.2500 0.4124
17.2667 0.4224
17.2833 0.4324
17.3000 0.4424
17.3167 0.4524
17.3333 0.4624
17.3500 0.4724
17.3667 0.4824
17.3833 0.4924
17.4000 0.5024
17.4167 0.5124
17.4333 0.5224
17.4500 0.5324
17.4667 0.5424
17.4833 0.3916
17.5000 0.3915
17.5167 0.3914
17.5333 0.3914
17.5500 0.3913
17.5667 0.3913
17.5833 0.3912
17.6000 0.3912
17.6167 0.3911
17.6333 0.3911
17.6500 0.3910
17.6667 0.3910
17.6833 0.3909
17.7000 0.3908
17.7167 0.3908
17.7333 0.4008
17.7500 0.4108
17.7667 0.4208
17.7833 0.4308
17.8000 0.4408
17.8167 0.4508
17.8333 0.4608
17.8500 0.4708
17.8667 0.4808
17.8833 0.4908
17.9000 0.5008
17.9167 0.5108
17.9333 0.5208
17.9500 0.5308
17.9667 0.5408
17.9833 0.3899
18.0000 0.3899
18.0167 0.3898
18.0333 0.3898
18.0500 0.3897
18.0667 0.3897
18.0833 0.3896
18.1000 0.3895
18.1167 0.3895
18.1333 0.3894
18.1500 0.3894
18.1667 0.3893
18.1833 0.3893
18.2000 0.3892
18.2167 0.3892
18.2333 0.3992
18.2500 0.4092
18.2667 0.4192
18.2833 0.4292
18.3000 0.4392
18.3167 0.4492
18.3333 0.4592
18.3500 0.4692
18.3667 0.4792
18.3833 0.4892
18.4000 0.4992
18.4167 0.5092
18.4333 0.5192
18.4500 0.5292
18.4667 0.5392
18.4833 0.3883
18.5000 0.3883
18.5167 0.3882
18.5333 0.3882
18.5500 0.3881
18.5667 0.3881
18.5833 0.3880
18.6000 0.3879
18.6167 0.3879
18.6333 0.3878
18.6500 0.3878
18.6667 0.3877
18.6833 0.3877
18.7000 0.3876
18.7167 0.3876
18.7333 0.3976
18.7500 0.4076
18.7667 0.4176
18.7833 0.4276
18.8000 0.4376
18.8167 0.4476
18.8333 0.4576
18.8500 0.4676
18.8667 0.4776
18.8833 0.4876
18.9000 0.4976
18.9167 0.5076
18.9333 0.5176
18.9500 0.5276
18.9667 0.5376
18.9833 0.3867
19.0000 0.3867
19.0167 0.3866
19.0333 0.3866
19.0500 0.3865
19.0667 0.3865
19.0833 0.3864
19.1000 0.3864
19.1167 0.3863
19.1333 0.3863
19.1500 0.3862
19.1667 0.3862
19.1833 0.3861
19.2000 0.3860
19.2167 0.3860
19.2333 0.3960
19.2500 0.4060
19.2667 0.4160
19.2833 0.4260
19.3000 0.4360
19.3167 0.4460
19.3333 0.4560
19.3500 0.4660
19.3667 0.4760
19.3833 0.4860
19.4000 0.4960
19.4167 0.5060
19.4333 0.5160
19.4500 0.5260
19.4667 0.5360
19.4833 0.3852
19.5000 0.3851
19.5167 0.3851
19.5333 0.3850
19.5500 0.3850
19.5667 0.3849
19.5833 0.3848
19.6000 0.3848
19.6167 0.3847
19.6333 0.3847
19.6500 0.3846
19.6667 0.3846
19.6833 0.3845
19.7000 0.3845
19.7167 0.3844
19.7333 0.3944
19.7500 0.4044
19.7667 0.4144
19.7833 0.4244
19.8000 0.4344
19.8167 0.4444
19.8333 0.4544
19.8500 0.4644
19.8667 0.4744
19.8833 0.4844
19.9000 0.4944
19.9167 0.5044
19.9333 0.5144
19.9500 0.5244
19.9667 0.5344
19.9833 0.3836
20.0000 0.3835
20.0167 0.3835
20.0333 0.3834
20.0500 0.3834
20.0667 0.3833
20.0833 0.3833
20.1000 0.3832
20.1167 0.3832
20.1333 0.3831
20.1500 0.3831
20.1667 0.3830
20.1833 0.3830
20.2000 0.3829
20.2167 0.3829
20.2333 0.3929
20.2500 0.4029
20.2667 0.4129
20.2833 0.4229
20.3000 0.4329
20.3167 0.4429
20.3333 0.4529
20.3500 0.4629
20.3667 0.4729
20.3833 0.4829
20.4000 0.4929
20.4167 0.5029
20.4333 0.5129
20.4500 0.5229
20.4667 0.5329
20.4833 0.3820
20.5000 0.3820
20.5167 0.3819
20.5333 0.3819
20.5500 0.3818
20.5667 0.3818
20.5833 0.3817
20.6000 0.3817
20.6167 0.3816
20.6333 0.3816
20.6500 0.3815
20.6667 0.3815
20.6833 0.3814
20.7000 0.3814
20.7167 0.3813
20.7333 0.3913
20.7500 0.4013
20.7667 0.4113
20.7833 0.4213
20.8000 0.4313
20.8167 0.4413
20.8333 0.4513
20.8500 0.4613
20.8667 0.4713
20.8833 0.4813
20.9000 0.4913
20.9167 0.5013
20.9333 0.5113
20.9500 0.5213
20.9667 0.5313
20.9833 0.3805
21.0000 0.3805
21.0167 0.3804
21.0333 0.3804
21.0500 0.3803
21.0667 0.3803
21.0833 0.3802
21.1000 0.3802
21.1167 0.3801
21.1333 0.3801
21.1500 0.3800
21.1667 0.3799
21.1833 0.3799
21.2000 0.3798
21.2167 0.3798
21.2333 0.3898
21.2500 0.3998
21.2667 0.4098
21.2833 0.4198
21.3000 0.4298
21.3167 0.4398
21.3333 0.4498
21.3500 0.4598
21.3667 0.4698
21.3833 0.4798
21.4000 0.4898
21.4167 0.4998
21.4333 0.5098
21.4500 0.5198
21.4667 0.5298
21.4833 0.3790
21.5000 0.3789
21.5167 0.3789
21.5333 0.3788
21.5500 0.3788
21.5667 0.3787
21.5833 0.3787
21.6000 0.3786
21.6167 0.3786
21.6333 0.3785
21.6500 0.3785
21.6667 0.3784
21.6833 0.3784
21.7000 0.3783
21.7167 0.3783
21.7333 0.3883
21.7500 0.3983
21.7667 0.4083
21.7833 0.4183
21.8000 0.4283
21.8167 0.4383
21.8333 0.4483
21.8500 0.4583
21.8667 0.4683
21.8833 0.4783
21.9000 0.4883
21.9167 0.4983
21.9333 0.5083
21.9500 0.5183
21.9667 0.5283
21.9833 0.3775
22.0000 0.3774
22.0167 0.3774
22.0333 0.3773
22.0500 0.3773
22.0667 0.3772
22.0833 0.3772
22.1000 0.3771
22.1167 0.3771
22.1333 0.3770
22.1500 0.3770
22.1667 0.3769
22.1833 0.3769
22.2000 0.3768
22.2167 0.3768
22.2333 0.3868
22.2500 0.3968
22.2667 0.4068
22.2833 0.4168
22.3000 0.4268
22.3167 0.4368
22.3333 0.4468
22.3500 0.4568
22.3667 0.4668
22.3833 0.4768
22.4000 0.4868
22.4167 0.4968
22.4333 0.5068
22.4500 0.5168
22.4667 0.5268
22.4833 0.3759
22.5000 0.3759
22.5167 0.3758
22.5333 0.3758
22.5500 0.3757
22.5667 0.3757
22.5833 0.3756
22.6000 0.3756
22.6167 0.3755
22.6333 0.3755
22.6500 0.3754
22.6667 0.3754
22.6833 0.3753
22.7000 0.3753
22.7167 0.3752
22.7333 0.3852
22.7500 0.3952
22.7667 0.4052
22.7833 0.4152
22.8000 0.4252
22.8167 0.4352
22.8333 0.4452
22.8500 0.4552
22.8667 0.4652
22.8833 0.4752
22.9000 0.4852
22.9167 0.4952
22.9333 0.5052
22.9500 0.5152
22.9667 0.5252
22.9833 0.3744
23.0000 0.3744
23.0167 0.3743
23.0333 0.3743
23.0500 0.3742
23.0667 0.3742
23.0833 0.3741
23.1000 0.3741
23.1167 0.3740
23.1333 0.3740
23.1500 0.3739
23.1667 0.3739
23.1833 0.3738
23.2000 0.3738
23.2167 0.3737
23.2333 0.3837
23.2500 0.3937
23.2667 0.4037
23.2833 0.4137
23.3000 0.4237
23.3167 0.4337
23.3333 0.4437
23.3500 0.4537
23.3667 0.4637
23.3833 0.4737
23.4000 0.4837
23.4167 0.4937
23.4333 0.5037
23.4500 0.5137
23.4667 0.5237
23.4833 0.3729
23.5000 0.3729
23.5167 0.3728
23.5333 0.3728
23.5500 0.3727
23.5667 0.3727
23.5833 0.3726
23.6000 0.3726
23.6167 0.3725
23.6333 0.3725
23.6500 0.3724
23.6667 0.3724
23.6833 0.3723
23.7000 0.3723
23.7167 0.3722
23.7333 0.3822
23.7500 0.3922
23.7667 0.4022
23.7833 0.4122
23.8000 0.4222
23.8167 0.4322
23.8333 0.4422
23.8500 0.4522
23.8667 0.4622
23.8833 0.4722
23.9000 0.4822
23.9167 0.4922
23.9333 0.5022
23.9500 0.5122
23.9667 0.5222
23.9833 0.3714
24.0000 0.3714
24.0167 0.3713
24.0333 0.3713
24.0500 0.3713
24.0667 0.3712
24.0833 0.3712
24.1000 0.3711
24.1167 0.3711
24.1333 0.3710
24.1500 0.3710
24.1667 0.3709
24.1833 0.3709
24.2000 0.3708
24.2167 0.3708
24.2333 0.3808
24.2500 0.3908
24.2667 0.4008
24.2833 0.4108
24.3000 0.4208
24.3167 0.4308
24.3333 0.4408
24.3500 0.4508
24.3667 0.4608
24.3833 0.4708
24.4000 0.4808
24.4167 0.4908
24.4333 0.5008
24.4500 0.5108
24.4667 0.5208
24.4833 0.3700
24.5000 0.3699
24.5167 0.3699
24.5333 0.3698
24.5500 0.3698
24.5667 0.3697
24.5833 0.3697
24.6000 0.3696
24.6167 0.3696
24.6333 0.3695
24.6500 0.3695
24.6667 0.3694
24.6833 0.3694
24.7000 0.3693
24.7167 0.3693
24.7333 0.3793
24.7500 0.3893
24.7667 0.3993
24.7833 0.4093
24.8000 0.4193
24.8167 0.4293
24.8333 0.4393
24.8500 0.4493
24.8667 0.4593
24.8833 0.4693
24.9000 0.4793
24.9167 0.4893
24.9333 0.4993
24.9500 0.5093
24.9667 0.5193
24.9833 0.3685
25.0000 0.3684
25.0167 0.3684
25.0333 0.3683
25.0500 0.3683
25.0667 0.3682
25.0833 0.3682
25.1000 0.3681
25.1167 0.3681
25.1333 0.3680
25.1500 0.3680
25.1667 0.3679
25.1833 0.3679
25.2000 0.3678
25.2167 0.3678
25.2333 0.3778
25.2500 0.3878
25.2667 0.3978
25.2833 0.4078
25.3000 0.4178
25.3167 0.4278
25.3333 0.4378
25.3500 0.4478
25.3667 0.4578
25.3833 0.4678
25.4000 0.4778
25.4167 0.4878
25.4333 0.4978
25.4500 0.5078
25.4667 0.5178
25.4833 0.3670
25.5000 0.3670
25.5167 0.3669
25.5333 0.3669
25.5500 0.3668
25.5667 0.3668
25.5833 0.3667
25.6000 0.3667
25.6167 0.3666
25.6333 0.3666
25.6500 0.3665
25.6667 0.3665
25.6833 0.3664
25.7000 0.3664
25.7167 0.3663
25.7333 0.3763
25.7500 0.3863
25.7667 0.3963
25.7833 0.4063
25.8000 0.4163
25.8167 0.4263
25.8333 0.4363
25.8500 0.4463
25.8667 0.4563
25.8833 0.4663
25.9000 0.4763
25.9167 0.4863
25.9333 0.4963
25.9500 0.5063
25.9667 0.5163
25.9833 0.3655
26.0000 0.3655
26.0167 0.3654
26.0333 0.3654
26.0500 0.3654
26.0667 0.3653
26.0833 0.3653
26.1000 0.3652
26.1167 0.3652
26.1333 0.3651
26.1500 0.3651
26.1667 0.3650
26.1833 0.3650
26.2000 0.3649
26.2167 0.3649
26.2333 0.3749
26.2500 0.3849
26.2667 0.3949
26.2833 0.4049
26.3000 0.4149
26.3167 0.4249
26.3333 0.4349
26.3500 0.4449
26.3667 0.4549
26.3833 0.4649
26.4000 0.4749
26.4167 0.4849
26.4333 0.4949
26.4500 0.5049
26.4667 0.5149
26.4833 0.3641
26.5000 0.3640
26.5167 0.3640
26.5333 0.3639
26.5500 0.3639
26.5667 0.3638
26.5833 0.3638
26.6000 0.3637
26.6167 0.3637
26.6333 0.3636
26.6500 0.3636
26.6667 0.3636
26.6833 0.3635
26.7000 0.3635
26.7167 0.3634
26.7333 0.3734
26.7500 0.3834
26.7667 0.3934
26.7833 0.4034
26.8000 0.4134
26.8167 0.4234
26.8333 0.4334
26.8500 0.4434
26.8667 0.4534
26.8833 0.4634
26.9000 0.4734
26.9167 0.4834
26.9333 0.4934
26.9500 0.5034
26.9667 0.5134
26.9833 0.3626
27.0000 0.3626
27.0167 0.3625
27.0333 0.3625
27.0500 0.3624
27.0667 0.3624
27.0833 0.3623
27.1000 0.3623
27.1167 0.3622
27.1333 0.3622
27.1500 0.3621
27.1667 0.3621
27.1833 0.3621
27.2000 0.3620
27.2167 0.3620
27.2333 0.3720
27.2500 0.3820
27.2667 0.3920
27.2833 0.4020
27.3000 0.4120
27.3167 0.4220
27.3333 0.4320
27.3500 0.4420
27.3667 0.4520
27.3833 0.4620
27.4000 0.4720
27.4167 0.4820
27.4333 0.4920
27.4500 0.5020
27.4667 0.5120
27.4833 0.3612
27.5000 0.3611
27.5167 0.3611
27.5333 0.3610
27.5500 0.3610
27.5667 0.3609
27.5833 0.3609
27.6000 0.3608
27.6167 0.3608
27.6333 0.3608
27.6500 0.3607
27.6667 0.3607
27.6833 0.3606
27.7000 0.3606
27.7167 0.3605
27.7333 0.3705
27.7500 0.3805
27.7667 0.3905
27.7833 0.4005
27.8000 0.4105
27.8167 0.4205
27.8333 0.4305
27.8500 0.4405
27.8667 0.4505
27.8833 0.4605
27.9000 0.4705
27.9167 0.4805
27.9333 0.4905
27.9500 0.5005
27.9667 0.5105
27.9833 0.3597
28.0000 0.3597
28.0167 0.3596
28.0333 0.3596
28.0500 0.3595
28.0667 0.3595
28.0833 0.3595
28.1000 0.3594
28.1167 0.3594
28.1333 0.3593
28.1500 0.3593
28.1667 0.3592
28.1833 0.3592
28.2000 0.3591
28.2167 0.3591
28.2333 0.3691
28.2500 0.3791
28.2667 0.3891
28.2833 0.3991
28.3000 0.4091
28.3167 0.4191
28.3333 0.4291
28.3500 0.4391
28.3667 0.4491
28.3833 0.4591
28.4000 0.4691
28.4167 0.4791
28.4333 0.4891
28.4500 0.4991
28.4667 0.5091
28.4833 0.3583
28.5000 0.3583
28.5167 0.3582
28.5333 0.3582
28.5500 0.3581
28.5667 0.3581
28.5833 0.3580
28.6000 0.3580
28.6167 0.3579
28.6333 0.3579
28.6500 0.3578
28.6667 0.3578
28.6833 0.3577
28.7000 0.3577
28.7167 0.3576
28.7333 0.3676
28.7500 0.3776
28.7667 0.3876
28.7833 0.3976
28.8000 0.4076
28.8167 0.4176
28.8333 0.4276
28.8500 0.4376
28.8667 0.4476
28.8833 0.4576
28.9000 0.4676
28.9167 0.4776
28.9333 0.4876
28.9500 0.4976
28.9667 0.5076
28.9833 0.3569
29.0000 0.3568
29.0167 0.3568
29.0333 0.3567
29.0500 0.3567
29.0667 0.3566
29.0833 0.3566
29.1000 0.3565
29.1167 0.3565
29.1333 0.3564
29.1500 0.3564
29.1667 0.3564
29.1833 0.3563
29.2000 0.3563
29.2167 0.3562
29.2333 0.3662
29.2500 0.3762
29.2667 0.3862
29.2833 0.3962
29.3000 0.4062
29.3167 0.4162
29.3333 0.4262
29.3500 0.4362
29.3667 0.4462
29.3833 0.4562
29.4000 0.4662
29.4167 0.4762
29.4333 0.4862
29.4500 0.4962
29.4667 0.5062
29.4833 0.3554
29.5000 0.3554
29.5167 0.3554
29.5333 0.3553
29.5500 0.3553
29.5667 0.3552
29.5833 0.3552
29.6000 0.3551
29.6167 0.3551
29.6333 0.3550
29.6500 0.3550
29.6667 0.3549
29.6833 0.3549
29.7000 0.3548
29.7167 0.3548
29.7333 0.3648
29.7500 0.3748
29.7667 0.3848
29.7833 0.3948
29.8000 0.4048
29.8167 0.4148
29.8333 0.4248
29.8500 0.4348
29.8667 0.4448
29.8833 0.4548
29.9000 0.4648
29.9167 0.4748
29.9333 0.4848
29.9500 0.4948
29.9667 0.5048
29.9833 0.3540
30.0000 0.3540
30.0167 0.3539
30.0333 0.3539
30.0500 0.3538
30.0667 0.3538
30.0833 0.3537
30.1000 0.3537
30.1167 0.3537
30.1333 0.3536
30.1500 0.3536
30.1667 0.3535
30.1833 0.3535
30.2000 0.3534
30.2167 0.3534
30.2333 0.3634
30.2500 0.3734
30.2667 0.3834
30.2833 0.3934
30.3000 0.4034
30.3167 0.4134
30.3333 0.4234
30.3500 0.4334
30.3667 0.4434
30.3833 0.4534
30.4000 0.4634
30.4167 0.4734
30.4333 0.4834
30.4500 0.4934
30.4667 0.5034
30.4833 0.3526
30.5000 0.3526
30.5167 0.3525
30.5333 0.3525
30.5500 0.3524
30.5667 0.3524
30.5833 0.3523
30.6000 0.3523
30.6167 0.3522
30.6333 0.3522
30.6500 0.3521
30.6667 0.3521
30.6833 0.3521
30.7000 0.3520
30.7167 0.3520
30.7333 0.3620
30.7500 0.3720
30.7667 0.3820
30.7833 0.3920
30.8000 0.4020
30.8167 0.4120
30.8333 0.4220
30.8500 0.4320
30.8667 0.4420
30.8833 0.4520
30.9000 0.4620
30.9167 0.4720
30.9333 0.4820
30.9500 0.4920
30.9667 0.5020
30.9833 0.3512
31.0000 0.3512
31.0167 0.3511
31.0333 0.3511
31.0500 0.3510
31.0667 0.3510
31.0833 0.3509
31.1000 0.3509
31.1167 0.3508
31.1333 0.3508
31.1500 0.3507
31.1667 0.3507
31.1833 0.3506
31.2000 0.3506
31.2167 0.3506
31.2333 0.3606
31.2500 0.3706
31.2667 0.3806
31.2833 0.3906
31.3000 0.4006
31.3167 0.4106
31.3333 0.4206
31.3500 0.4306
31.3667 0.4406
31.3833 0.4506
31.4000 0.4606
31.4167 0.4706
31.4333 0.4806
31.4500 0.4906
31.4667 0.5006
31.4833 0.3498
31.5000 0.3498
31.5167 0.3497
31.5333 0.3497
31.5500 0.3496
31.5667 0.3496
31.5833 0.3495
31.6000 0.3495
31.6167 0.3494
31.6333 0.3494
31.6500 0.3493
31.6667 0.3493
31.6833 0.3492
31.7000 0.3492
31.7167 0.3492
31.7333 0.3592
31.7500 0.3692
31.7667 0.3792
31.7833 0.3892
31.8000 0.3992
31.8167 0.4092
31.8333 0.4192
31.8500 0.4292
31.8667 0.4392
31.8833 0.4492
31.9000 0.4592
31.9167 0.4692
31.9333 0.4792
31.9500 0.4892
31.9667 0.4992
31.9833 0.3484
32.0000 0.3484
32.0167 0.3483
32.0333 0.3483
32.0500 0.3482
32.0667 0.3482
32.0833 0.3481
32.1000 0.3481
32.1167 0.3480
32.1333 0.3480
32.1500 0.3479
32.1667 0.3479
32.1833 0.3479
32.2000 0.3478
32.2167 0.3478
32.2333 0.3578
32.2500 0.3678
32.2667 0.3778
32.2833 0.3878
32.3000 0.3978
32.3167 0.4078
32.3333 0.4178
32.3500 0.4278
32.3667 0.4378
32.3833 0.4478
32.4000 0.4578
32.4167 0.4678
32.4333 0.4778
32.4500 0.4878
32.4667 0.4978
32.4833 0.3470
32.5000 0.3470
32.5167 0.3469
32.5333 0.3469
32.5500 0.3468
32.5667 0.3468
32.5833 0.3467
32.6000 0.3467
32.6167 0.3466
32.6333 0.3466
32.6500 0.3466
32.6667 0.3465
32.6833 0.3465
32.7000 0.3464
32.7167 0.3464
32.7333 0.3564
32.7500 0.3664
32.7667 0.3764
32.7833 0.3864
32.8000 0.3964
32.8167 0.4064
32.8333 0.4164
32.8500 0.4264
32.8667 0.4364
32.8833 0.4464
32.9000 0.4564
32.9167 0.4664
32.9333 0.4764
32.9500 0.4864
32.9667 0.4964
32.9833 0.3456
33.0000 0.3456
33.0167 0.3455
33.0333 0.3455
33.0500 0.3455
33.0667 0.3454
33.0833 0.3454
33.1000 0.3453
33.1167 0.3453
33.1333 0.3452
33.1500 0.3452
33.1667 0.3451
33.1833 0.3451
33.2000 0.3450
33.2167 0.3450
33.2333 0.3550
33.2500 0.3650
33.2667 0.3750
33.2833 0.3850
33.3000 0.3950
33.3167 0.4050
33.3333 0.4150
33.3500 0.4250
33.3667 0.4350
33.3833 0.4450
33.4000 0.4550
33.4167 0.4650
33.4333 0.4750
33.4500 0.4850
33.4667 0.4950
33.4833 0.3443
33.5000 0.3442
33.5167 0.3442
33.5333 0.3441
33.5500 0.3441
33.5667 0.3440
33.5833 0.3440
33.6000 0.3439
33.6167 0.3439
33.6333 0.3438
33.6500 0.3438
33.6667 0.3437
33.6833 0.3437
33.7000 0.3437
33.7167 0.3436
33.7333 0.3536
33.7500 0.3636
33.7667 0.3736
33.7833 0.3836
33.8000 0.3936
33.8167 0.4036
33.8333 0.4136
33.8500 0.4236
33.8667 0.4336
33.8833 0.4436
33.9000 0.4536
33.9167 0.4636
33.9333 0.4736
33.9500 0.4836
33.9667 0.4936
33.9833 0.3429
34.0000 0.3428
34.0167 0.3428
34.0333 0.3427
34.0500 0.3427
34.0667 0.3427
34.0833 0.3426
34.1000 0.3426
34.1167 0.3425
34.1333 0.3425
34.1500 0.3424
34.1667 0.3424
34.1833 0.3423
34.2000 0.3423
34.2167 0.3422
34.2333 0.3522
34.2500 0.3622
34.2667 0.3722
34.2833 0.3822
34.3000 0.3922
34.3167 0.4022
34.3333 0.4122
34.3500 0.4222
34.3667 0.4322
34.3833 0.4422
34.4000 0.4522
34.4167 0.4622
34.4333 0.4722
34.4500 0.4822
34.4667 0.4922
34.4833 0.3415
34.5000 0.3415
34.5167 0.3414
34.5333 0.3414
34.5500 0.3413
34.5667 0.3413
34.5833 0.3412
34.6000 0.3412
34.6167 0.3411
34.6333 0.3411
34.6500 0.3411
34.6667 0.3410
34.6833 0.3410
34.7000 0.3409
34.7167 0.3409
34.7333 0.3509
34.7500 0.3609
34.7667 0.3709
34.7833 0.3809
34.8000 0.3909
34.8167 0.4009
34.8333 0.4109
34.8500 0.4209
34.8667 0.4309
34.8833 0.4409
34.9000 0.4509
34.9167 0.4609
34.9333 0.4709
34.9500 0.4809
34.9667 0.4909
34.9833 0.3401
35.0000 0.3401
35.0167 0.3401
35.0333 0.3400
35.0500 0.3400
35.0667 0.3399
35.0833 0.3399
35.1000 0.3398
35.1167 0.3398
35.1333 0.3397
35.1500 0.3397
35.1667 0.3396
35.1833 0.3396
35.2000 0.3396
35.2167 0.3395
35.2333 0.3495
35.2500 0.3595
35.2667 0.3695
35.2833 0.3795
35.3000 0.3895
35.3167 0.3995
35.3333 0.4095
35.3500 0.4195
35.3667 0.4295
35.3833 0.4395
35.4000 0.4495
35.4167 0.4595
35.4333 0.4695
35.4500 0.4795
35.4667 0.4895
35.4833 0.3388
35.5000 0.3387
35.5167 0.3387
35.5333 0.3387
35.5500 0.3386
35.5667 0.3386
35.5833 0.3385
35.6000 0.3385
35.6167 0.3384
35.6333 0.3384
35.6500 0.3383
35.6667 0.3383
35.6833 0.3382
35.7000 0.3382
35.7167 0.3382
35.7333 0.3482
35.7500 0.3582
35.7667 0.3682
35.7833 0.3782
35.8000 0.3882
35.8167 0.3982
35.8333 0.4082
35.8500 0.4182
35.8667 0.4282
35.8833 0.4382
35.9000 0.4482
35.9167 0.4582
35.9333 0.4682
35.9500 0.4782
35.9667 0.4882
35.9833 0.3374
36.0000 0.3374
36.0167 0.3373
36.0333 0.3373
36.0500 0.3373
36.0667 0.3372
36.0833 0.3372
36.1000 0.3371
36.1167 0.3371
36.1333 0.3370
36.1500 0.3370
36.1667 0.3369
36.1833 0.3369
36.2000 0.3369
36.2167 0.3368
36.2333 0.3468
36.2500 0.3568
36.2667 0.3668
36.2833 0.3768
36.3000 0.3868
36.3167 0.3968
36.3333 0.4068
36.3500 0.4168
36.3667 0.4268
36.3833 0.4368
36.4000 0.4468
36.4167 0.4568
36.4333 0.4668
36.4500 0.4768
36.4667 0.4868
36.4833 0.3361
36.5000 0.3360
36.5167 0.3360
36.5333 0.3360
36.5500 0.3359
36.5667 0.3359
36.5833 0.3358
36.6000 0.3358
36.6167 0.3357
36.6333 0.3357
36.6500 0.3356
36.6667 0.3356
36.6833 0.3356
36.7000 0.3355
36.7167 0.3355
36.7333 0.3455
36.7500 0.3555
36.7667 0.3655
36.7833 0.3755
36.8000 0.3855
36.8167 0.3955
36.8333 0.4055
36.8500 0.4155
36.8667 0.4255
36.8833 0.4355
36.9000 0.4455
36.9167 0.4555
36.9333 0.4655
36.9500 0.4755
36.9667 0.4855
36.9833 0.3347
37.0000 0.3347
37.0167 0.3347
37.0333 0.3346
37.0500 0.3346
37.0667 0.3345
37.0833 0.3345
37.1000 0.3344
37.1167 0.3344
37.1333 0.3343
37.1500 0.3343
37.1667 0.3343
37.1833 0.3342
37.2000 0.3342
37.2167 0.3341
37.2333 0.3441
37.2500 0.3541
37.2667 0.3641
37.2833 0.3741
37.3000 0.3841
37.3167 0.3941
37.3333 0.4041
37.3500 0.4141
37.3667 0.4241
37.3833 0.4341
37.4000 0.4441
37.4167 0.4541
37.4333 0.4641
37.4500 0.4741
37.4667 0.4841
37.4833 0.3334
37.5000 0.3334
37.5167 0.3333
37.5333 0.3333
37.5500 0.3332
37.5667 0.3332
37.5833 0.3331
37.6000 0.3331
37.6167 0.3331
37.6333 0.3330
37.6500 0.3330
37.6667 0.3329
37.6833 0.3329
37.7000 0.3328
37.7167 0.3328
37.7333 0.3428
37.7500 0.3528
37.7667 0.3628
37.7833 0.3728
37.8000 0.3828
37.8167 0.3928
37.8333 0.4028
37.8500 0.4128
37.8667 0.4228
37.8833 0.4328
37.9000 0.4428
37.9167 0.4528
37.9333 0.4628
37.9500 0.4728
37.9667 0.4828
37.9833 0.3321
38.0000 0.3320
38.0167 0.3320
38.0333 0.3319
38.0500 0.3319
38.0667 0.3319
38.0833 0.3318
38.1000 0.3318
38.1167 0.3317
38.1333 0.3317
38.1500 0.3316
38.1667 0.3316
38.1833 0.3316
38.2000 0.3315
38.2167 0.3315
38.2333 0.3415
38.2500 0.3515
38.2667 0.3615
38.2833 0.3715
38.3000 0.3815
38.3167 0.3915
38.3333 0.4015
38.3500 0.4115
38.3667 0.4215
38.3833 0.4315
38.4000 0.4415
38.4167 0.4515
38.4333 0.4615
38.4500 0.4715
38.4667 0.4815
38.4833 0.3308
38.5000 0.3307
38.5167 0.3307
38.5333 0.3306
38.5500 0.3306
38.5667 0.3305
38.5833 0.3305
38.6000 0.3304
38.6167 0.3304
38.6333 0.3304
38.6500 0.3303
38.6667 0.3303
38.6833 0.3302
38.7000 0.3302
38.7167 0.3301
38.7333 0.3401
38.7500 0.3501
38.7667 0.3601
38.7833 0.3701
38.8000 0.3801
38.8167 0.3901
38.8333 0.4001
38.8500 0.4101
38.8667 0.4201
38.8833 0.4301
38.9000 0.4401
38.9167 0.4501
38.9333 0.4601
38.9500 0.4701
38.9667 0.4801
38.9833 0.3294
39.0000 0.3294
39.0167 0.3293
39.0333 0.3293
39.0500 0.3293
39.0667 0.3292
39.0833 0.3292
39.1000 0.3291
39.1167 0.3291
39.1333 0.3290
39.1500 0.3290
39.1667 0.3290
39.1833 0.3289
39.2000 0.3289
39.2167 0.3288
39.2333 0.3388
39.2500 0.3488
39.2667 0.3588
39.2833 0.3688
39.3000 0.3788
39.3167 0.3888
39.3333 0.3988
39.3500 0.4088
39.3667 0.4188
39.3833 0.4288
39.4000 0.4388
39.4167 0.4488
39.4333 0.4588
39.4500 0.4688
39.4667 0.4788
39.4833 0.3281
39.5000 0.3281
39.5167 0.3280
39.5333 0.3280
39.5500 0.3279
39.5667 0.3279
39.5833 0.3279
39.6000 0.3278
39.6167 0.3278
39.6333 0.3277
39.6500 0.3277
39.6667 0.3276
39.6833 0.3276
39.7000 0.3276
39.7167 0.3275
39.7333 0.3375
39.7500 0.3475
39.7667 0.3575
39.7833 0.3675
39.8000 0.3775
39.8167 0.3875
39.8333 0.3975
39.8500 0.4075
39.8667 0.4175
39.8833 0.4275
39.9000 0.4375
39.9167 0.4475
39.9333 0.4575
39.9500 0.4675
39.9667 0.4775
39.9833 0.3268
40.0000 0.3268
40.0167 0.3267
40.0333 0.3267
40.0500 0.3266
40.0667 0.3266
40.0833 0.3265
40.1000 0.3265
40.1167 0.3265
40.1333 0.3264
40.1500 0.3264
40.1667 0.3263
40.1833 0.3263
40.2000 0.3262
40.2167 0.3262
40.2333 0.3362
40.2500 0.3462
40.2667 0.3562
40.2833 0.3662
40.3000 0.3762
40.3167 0.3862
40.3333 0.3962
40.3500 0.4062
40.3667 0.4162
40.3833 0.4262
40.4000 0.4362
40.4167 0.4462
40.4333 0.4562
40.4500 0.4662
40.4667 0.4762
40.4833 0.3255
40.5000 0.3255
40.5167 0.3254
40.5333 0.3254
40.5500 0.3253
40.5667 0.3253
40.5833 0.3252
40.6000 0.3252
40.6167 0.3252
40.6333 0.3251
40.6500 0.3251
40.6667 0.3250
40.6833 0.3250
40.7000 0.3249
40.7167 0.3249
40.7333 0.3349
40.7500 0.3449
40.7667 0.3549
40.7833 0.3649
40.8000 0.3749
40.8167 0.3849
40.8333 0.3949
40.8500 0.4049
40.8667 0.4149
40.8833 0.4249
40.9000 0.4349
40.9167 0.4449
40.9333 0.4549
40.9500 0.4649
40.9667 0.4749
40.9833 0.3242
41.0000 0.3242
41.0167 0.3241
41.0333 0.3241
41.0500 0.3240
41.0667 0.3240
41.0833 0.3239
41.1000 0.3239
41.1167 0.3239
41.1333 0.3238
41.1500 0.3238
41.1667 0.3237
41.1833 0.3237
41.2000 0.3236
41.2167 0.3236
41.2333 0.3336
41.2500 0.3436
41.2667 0.3536
41.2833 0.3636
41.3000 0.3736
41.3167 0.3836
41.3333 0.3936
41.3500 0.4036
41.3667 0.4136
41.3833 0.4236
41.4000 0.4336
41.4167 0.4436
41.4333 0.4536
41.4500 0.4636
41.4667 0.4736
41.4833 0.3229
41.5000 0.3229
41.5167 0.3228
41.5333 0.3228
41.5500 0.3227
41.5667 0.3227
41.5833 0.3227
41.6000 0.3226
41.6167 0.3226
41.6333 0.3225
41.6500 0.3225
41.6667 0.3224
41.6833 0.3224
41.7000 0.3224
41.7167 0.3223
41.7333 0.3323
41.7500 0.3423
41.7667 0.3523
41.7833 0.3623
41.8000 0.3723
41.8167 0.3823
41.8333 0.3923
41.8500 0.4023
41.8667 0.4123
41.8833 0.4223
41.9000 0.4323
41.9167 0.4423
41.9333 0.4523
41.9500 0.4623
41.9667 0.4723
41.9833 0.3216
42.0000 0.3216
42.0167 0.3215
42.0333 0.3215
42.0500 0.3215
42.0667 0.3214
42.0833 0.3214
42.1000 0.3213
42.1167 0.3213
42.1333 0.3212
42.1500 0.3212
42.1667 0.3212
42.1833 0.3211
42.2000 0.3211
42.2167 0.3210
42.2333 0.3310
42.2500 0.3410
42.2667 0.3510
42.2833 0.3610
42.3000 0.3710
42.3167 0.3810
42.3333 0.3910
42.3500 0.4010
42.3667 0.4110
42.3833 0.4210
42.4000 0.4310
42.4167 0.4410
42.4333 0.4510
42.4500 0.4610
42.4667 0.4710
42.4833 0.3203
42.5000 0.3203
42.5167 0.3203
42.5333 0.3202
42.5500 0.3202
42.5667 0.3201
42.5833 0.3201
42.6000 0.3200
42.6167 0.3200
42.6333 0.3200
42.6500 0.3199
42.6667 0.3199
42.6833 0.3198
42.7000 0.3198
42.7167 0.3197
42.7333 0.3297
42.7500 0.3397
42.7667 0.3497
42.7833 0.3597
42.8000 0.3697
42.8167 0.3797
42.8333 0.3897
42.8500 0.3997
42.8667 0.4097
42.8833 0.4197
42.9000 0.4297
42.9167 0.4397
42.9333 0.4497
42.9500 0.4597
42.9667 0.4697
42.9833 0.3191
43.0000 0.3190
43.0167 0.3190
43.0333 0.3189
43.0500 0.3189
43.0667 0.3188
43.0833 0.3188
43.1000 0.3188
43.1167 0.3187
43.1333 0.3187
43.1500 0.3186
43.1667 0.3186
43.1833 0.3186
43.2000 0.3185
43.2167 0.3185
43.2333 0.3285
43.2500 0.3385
43.2667 0.3485
43.2833 0.3585
43.3000 0.3685
43.3167 0.3785
43.3333 0.3885
43.3500 0.3985
43.3667 0.4085
43.3833 0.4185
43.4000 0.4285
43.4167 0.4385
43.4333 0.4485
43.4500 0.4585
43.4667 0.4685
43.4833 0.3178
43.5000 0.3177
43.5167 0.3177
43.5333 0.3177
43.5500 0.3176
43.5667 0.3176
43.5833 0.3175
43.6000 0.3175
43.6167 0.3174
43.6333 0.3174
43.6500 0.3174
43.6667 0.3173
43.6833 0.3173
43.7000 0.3172
43.7167 0.3172
43.7333 0.3272
43.7500 0.3372
43.7667 0.3472
43.7833 0.3572
43.8000 0.3672
43.8167 0.3772
43.8333 0.3872
43.8500 0.3972
43.8667 0.4072
43.8833 0.4172
43.9000 0.4272
43.9167 0.4372
43.9333 0.4472
43.9500 0.4572
43.9667 0.4672
43.9833 0.3165
44.0000 0.3165
44.0167 0.3164
44.0333 0.3164
44.0500 0.3163
44.0667 0.3163
44.0833 0.3163
44.1000 0.3162
44.1167 0.3162
44.1333 0.3161
44.1500 0.3161
44.1667 0.3161
44.1833 0.3160
44.2000 0.3160
44.2167 0.3159
44.2333 0.3259
44.2500 0.3359
44.2667 0.3459
44.2833 0.3559
44.3000 0.3659
44.3167 0.3759
44.3333 0.3859
44.3500 0.3959
44.3667 0.4059
44.3833 0.4159
44.4000 0.4259
44.4167 0.4359
44.4333 0.4459
44.4500 0.4559
44.4667 0.4659
44.4833 0.3153
44.5000 0.3152
44.5167 0.3152
44.5333 0.3151
44.5500 0.3151
44.5667 0.3150
44.5833 0.3150
44.6000 0.3150
44.6167 0.3149
44.6333 0.3149
44.6500 0.3148
44.6667 0.3148
44.6833 0.3148
44.7000 0.3147
44.7167 0.3147
44.7333 0.3247
44.7500 0.3347
44.7667 0.3447
44.7833 0.3547
44.8000 0.3647
44.8167 0.3747
44.8333 0.3847
44.8500 0.3947
44.8667 0.4047
44.8833 0.4147
44.9000 0.4247
44.9167 0.4347
44.9333 0.4447
44.9500 0.4547
44.9667 0.4647
44.9833 0.3140
45.0000 0.3140
45.0167 0.3139
45.0333 0.3139
45.0500 0.3138
45.0667 0.3138
45.0833 0.3137
45.1000 0.3137
45.1167 0.3137
45.1333 0.3136
45.1500 0.3136
45.1667 0.3135
45.1833 0.3135
45.2000 0.3135
45.2167 0.3134
45.2333 0.3234
45.2500 0.3334
45.2667 0.3434
45.2833 0.3534
45.3000 0.3634
45.3167 0.3734
45.3333 0.3834
45.3500 0.3934
45.3667 0.4034
45.3833 0.4134
45.4000 0.4234
45.4167 0.4334
45.4333 0.4434
45.4500 0.4534
45.4667 0.4634
45.4833 0.3127
45.5000 0.3127
45.5167 0.3127
45.5333 0.3126
45.5500 0.3126
45.5667 0.3125
45.5833 0.3125
45.6000 0.3125
45.6167 0.3124
45.6333 0.3124
45.6500 0.3123
45.6667 0.3123
45.6833 0.3122
45.7000 0.3122
45.7167 0.3122
45.7333 0.3222
45.7500 0.3322
45.7667 0.3422
45.7833 0.3522
45.8000 0.3622
45.8167 0.3722
45.8333 0.3822
45.8500 0.3922
45.8667 0.4022
45.8833 0.4122
45.9000 0.4222
45.9167 0.4322
45.9333 0.4422
45.9500 0.4522
45.9667 0.4622
45.9833 0.3115
46.0000 0.3115
46.0167 0.3114
46.0333 0.3114
46.0500 0.3113
46.0667 0.3113
46.0833 0.3112
46.1000 0.3112
46.1167 0.3112
46.1333 0.3111
46.1500 0.3111
46.1667 0.3110
46.1833 0.3110
46.2000 0.3110
46.2167 0.3109
46.2333 0.3209
46.2500 0.3309
46.2667 0.3409
46.2833 0.3509
46.3000 0.3609
46.3167 0.3709
46.3333 0.3809
46.3500 0.3909
46.3667 0.4009
46.3833 0.4109
46.4000 0.4209
46.4167 0.4309
46.4333 0.4409
46.4500 0.4509
46.4667 0.4609
46.4833 0.3103
46.5000 0.3102
46.5167 0.3102
46.5333 0.3101
46.5500 0.3101
46.5667 0.3100
46.5833 0.3100
46.6000 0.3100
46.6167 0.3099
46.6333 0.3099
46.6500 0.3098
46.6667 0.3098
46.6833 0.3098
46.7000 0.3097
46.7167 0.3097
46.7333 0.3197
46.7500 0.3297
46.7667 0.3397
46.7833 0.3497
46.8000 0.3597
46.8167 0.3697
46.8333 0.3797
46.8500 0.3897
46.8667 0.3997
46.8833 0.4097
46.9000 0.4197
46.9167 0.4297
46.9333 0.4397
46.9500 0.4497
46.9667 0.4597
46.9833 0.3090
47.0000 0.3090
47.0167 0.3089
47.0333 0.3089
47.0500 0.3088
47.0667 0.3088
47.0833 0.3088
47.1000 0.3087
47.1167 0.3087
47.1333 0.3086
47.1500 0.3086
47.1667 0.3086
47.1833 0.3085
47.2000 0.3085
47.2167 0.3084
47.2333 0.3184
47.2500 0.3284
47.2667 0.3384
47.2833 0.3484
47.3000 0.3584
47.3167 0.3684
47.3333 0.3784
47.3500 0.3884
47.3667 0.3984
47.3833 0.4084
47.4000 0.4184
47.4167 0.4284
47.4333 0.4384
47.4500 0.4484
47.4667 0.4584
47.4833 0.3078
47.5000 0.3077
47.5167 0.3077
47.5333 0.3077
47.5500 0.3076
47.5667 0.3076
47.5833 0.3075
47.6000 0.3075
47.6167 0.3075
47.6333 0.3074
47.6500 0.3074
47.6667 0.3073
47.6833 0.3073
47.7000 0.3072
47.7167 0.3072
47.7333 0.3172
47.7500 0.3272
47.7667 0.3372
47.7833 0.3472
47.8000 0.3572
47.8167 0.3672
47.8333 0.3772
47.8500 0.3872
47.8667 0.3972
47.8833 0.4072
47.9000 0.4172
47.9167 0.4272
47.9333 0.4372
47.9500 0.4472
47.9667 0.4572
47.9833 0.3066
48.0000 0.3065
48.0167 0.3065
48.0333 0.3064
48.0500 0.3064
48.0667 0.3063
48.0833 0.3063
48.1000 0.3063
48.1167 0.3062
48.1333 0.3062
48.1500 0.3061
48.1667 0.3061
48.1833 0.3061
48.2000 0.3060
48.2167 0.3060
48.2333 0.3160
48.2500 0.3260
48.2667 0.3360
48.2833 0.3460
48.3000 0.3560
48.3167 0.3660
48.3333 0.3760
48.3500 0.3860
48.3667 0.3960
48.3833 0.4060
48.4000 0.4160
48.4167 0.4260
48.4333 0.4360
48.4500 0.4460
48.4667 0.4560
48.4833 0.3053
48.5000 0.3053
48.5167 0.3052
48.5333 0.3052
48.5500 0.3052
48.5667 0.3051
48.5833 0.3051
48.6000 0.3050
48.6167 0.3050
48.6333 0.3050
48.6500 0.3049
48.6667 0.3049
48.6833 0.3048
48.7000 0.3048
48.7167 0.3048
48.7333 0.3148
48.7500 0.3248
48.7667 0.3348
48.7833 0.3448
48.8000 0.3548
48.8167 0.3648
48.8333 0.3748
48.8500 0.3848
48.8667 0.3948
48.8833 0.4048
48.9000 0.4148
48.9167 0.4248
48.9333 0.4348
48.9500 0.4448
48.9667 0.4548
48.9833 0.3041
49.0000 0.3041
49.0167 0.3040
49.0333 0.3040
49.0500 0.3039
49.0667 0.3039
49.0833 0.3039
49.1000 0.3038
49.1167 0.3038
49.1333 0.3037
49.1500 0.3037
49.1667 0.3037
49.1833 0.3036
49.2000 0.3036
49.2167 0.3035
49.2333 0.3135
49.2500 0.3235
49.2667 0.3335
49.2833 0.3435
49.3000 0.3535
49.3167 0.3635
49.3333 0.3735
49.3500 0.3835
49.3667 0.3935
49.3833 0.4035
49.4000 0.4135
49.4167 0.4235
49.4333 0.4335
49.4500 0.4435
49.4667 0.4535
49.4833 0.3029
49.5000 0.3029
49.5167 0.3028
49.5333 0.3028
49.5500 0.3027
49.5667 0.3027
49.5833 0.3027
49.6000 0.3026
49.6167 0.3026
49.6333 0.3025
49.6500 0.3025
49.6667 0.3024
49.6833 0.3024
49.7000 0.3024
49.7167 0.3023
49.7333 0.3123
49.7500 0.3223
49.7667 0.3323
49.7833 0.3423
49.8000 0.3523
49.8167 0.3623
49.8333 0.3723
49.8500 0.3823
49.8667 0.3923
49.8833 0.4023
49.9000 0.4123
49.9167 0.4223
49.9333 0.4323
49.9500 0.4423
49.9667 0.4523
49.9833 0.3017
50.0000 0.3016
50.0167 0.3016
50.0333 0.3016
50.0500 0.3015
50.0667 0.3015
50.0833 0.3014
50.1000 0.3014
50.1167 0.3014
50.1333 0.3013
50.1500 0.3013
50.1667 0.3012
50.1833 0.3012
50.2000 0.3012
50.2167 0.3011
50.2333 0.3111
50.2500 0.3211
50.2667 0.3311
50.2833 0.3411
50.3000 0.3511
50.3167 0.3611
50.3333 0.3711
50.3500 0.3811
50.3667 0.3911
50.3833 0.4011
50.4000 0.4111
50.4167 0.4211
50.4333 0.4311
50.4500 0.4411
50.4667 0.4511
50.4833 0.3005
50.5000 0.3004
50.5167 0.3004
50.5333 0.3004
50.5500 0.3003
50.5667 0.3003
50.5833 0.3002
50.6000 0.3002
50.6167 0.3002
50.6333 0.3001
50.6500 0.3001
50.6667 0.3000
50.6833 0.3000
50.7000 0.3000
50.7167 0.2999
50.7333 0.3099
50.7500 0.3199
50.7667 0.3299
50.7833 0.3399
50.8000 0.3499
50.8167 0.3599
50.8333 0.3699
50.8500 0.3799
50.8667 0.3899
50.8833 0.3999
50.9000 0.4099
50.9167 0.4199
50.9333 0.4299
50.9500 0.4399
50.9667 0.4499
50.9833 0.2993
51.0000 0.2992
51.0167 0.2992
51.0333 0.2992
51.0500 0.2991
51.0667 0.2991
51.0833 0.2990
51.1000 0.2990
51.1167 0.2990
51.1333 0.2989
51.1500 0.2989
51.1667 0.2988
51.1833 0.2988
51.2000 0.2988
51.2167 0.2987
51.2333 0.3087
51.2500 0.3187
51.2667 0.3287
51.2833 0.3387
51.3000 0.3487
51.3167 0.3587
51.3333 0.3687
51.3500 0.3787
51.3667 0.3887
51.3833 0.3987
51.4000 0.4087
51.4167 0.4187
51.4333 0.4287
51.4500 0.4387
51.4667 0.4487
51.4833 0.2981
51.5000 0.2980
51.5167 0.2980
51.5333 0.2980
51.5500 0.2979
51.5667 0.2979
51.5833 0.2978
51.6000 0.2978
51.6167 0.2978
51.6333 0.2977
51.6500 0.2977
51.6667 0.2976
51.6833 0.2976
51.7000 0.2976
51.7167 0.2975
51.7333 0.3075
51.7500 0.3175
51.7667 0.3275
51.7833 0.3375
51.8000 0.3475
51.8167 0.3575
51.8333 0.3675
51.8500 0.3775
51.8667 0.3875
51.8833 0.3975
51.9000 0.4075
51.9167 0.4175
51.9333 0.4275
51.9500 0.4375
51.9667 0.4475
51.9833 0.2969
52.0000 0.2969
52.0167 0.2968
52.0333 0.2968
52.0500 0.2967
52.0667 0.2967
52.0833 0.2967
52.1000 0.2966
52.1167 0.2966
52.1333 0.2965
52.1500 0.2965
52.1667 0.2965
52.1833 0.2964
52.2000 0.2964
52.2167 0.2963
52.2333 0.3063
52.2500 0.3163
52.2667 0.3263
52.2833 0.3363
52.3000 0.3463
52.3167 0.3563
52.3333 0.3663
52.3500 0.3763
52.3667 0.3863
52.3833 0.3963
52.4000 0.4063
52.4167 0.4163
52.4333 0.4263
52.4500 0.4363
52.4667 0.4463
52.4833 0.2957
52.5000 0.2957
52.5167 0.2956
52.5333 0.2956
52.5500 0.2956
52.5667 0.2955
52.5833 0.2955
52.6000 0.2954
52.6167 0.2954
52.6333 0.2954
52.6500 0.2953
52.6667 0.2953
52.6833 0.2952
52.7000 0.2952
52.7167 0.2952
52.7333 0.3052
52.7500 0.3152
52.7667 0.3252
52.7833 0.3352
52.8000 0.3452
52.8167 0.3552
52.8333 0.3652
52.8500 0.3752
52.8667 0.3852
52.8833 0.3952
52.9000 0.4052
52.9167 0.4152
52.9333 0.4252
52.9500 0.4352
52.9667 0.4452
52.9833 0.2945
53.0000 0.2945
53.0167 0.2945
53.0333 0.2944
53.0500 0.2944
53.0667 0.2943
53.0833 0.2943
53.1000 0.2943
53.1167 0.2942
53.1333 0.2942
53.1500 0.2941
53.1667 0.2941
53.1833 0.2941
53.2000 0.2940
53.2167 0.2940
53.2333 0.3040
53.2500 0.3140
53.2667 0.3240
53.2833 0.3340
53.3000 0.3440
53.3167 0.3540
53.3333 0.3640
53.3500 0.3740
53.3667 0.3840
53.3833 0.3940
53.4000 0.4040
53.4167 0.4140
53.4333 0.4240
53.4500 0.4340
53.4667 0.4440
53.4833 0.2934
53.5000 0.2933
53.5167 0.2933
53.5333 0.2932
53.5500 0.2932
53.5667 0.2932
53.5833 0.2931
53.6000 0.2931
53.6167 0.2930
53.6333 0.2930
53.6500 0.2930
53.6667 0.2929
53.6833 0.2929
53.7000 0.2928
53.7167 0.2928
53.7333 0.3028
53.7500 0.3128
53.7667 0.3228
53.7833 0.3328
53.8000 0.3428
53.8167 0.3528
53.8333 0.3628
53.8500 0.3728
53.8667 0.3828
53.8833 0.3928
53.9000 0.4028
53.9167 0.4128
53.9333 0.4228
53.9500 0.4328
53.9667 0.4428
53.9833 0.2922
54.0000 0.2921
54.0167 0.2921
54.0333 0.2921
54.0500 0.2920
54.0667 0.2920
54.0833 0.2919
54.1000 0.2919
54.1167 0.2919
54.1333 0.2918
54.1500 0.2918
54.1667 0.2918
54.1833 0.2917
54.2000 0.2917
54.2167 0.2916
54.2333 0.3016
54.2500 0.3116
54.2667 0.3216
54.2833 0.3316
54.3000 0.3416
54.3167 0.3516
54.3333 0.3616
54.3500 0.3716
54.3667 0.3816
54.3833 0.3916
54.4000 0.4016
54.4167 0.4116
54.4333 0.4216
54.4500 0.4316
54.4667 0.4416
54.4833 0.2910
54.5000 0.2910
54.5167 0.2909
54.5333 0.2909
54.5500 0.2909
54.5667 0.2908
54.5833 0.2908
54.6000 0.2907
54.6167 0.2907
54.6333 0.2907
54.6500 0.2906
54.6667 0.2906
54.6833 0.2906
54.7000 0.2905
54.7167 0.2905
54.7333 0.3005
54.7500 0.3105
54.7667 0.3205
54.7833 0.3305
54.8000 0.3405
54.8167 0.3505
54.8333 0.3605
54.8500 0.3705
54.8667 0.3805
54.8833 0.3905
54.9000 0.4005
54.9167 0.4105
54.9333 0.4205
54.9500 0.4305
54.9667 0.4405
54.9833 0.2899
55.0000 0.2898
55.0167 0.2898
55.0333 0.2897
55.0500 0.2897
55.0667 0.2897
55.0833 0.2896
55.1000 0.2896
55.1167 0.2895
55.1333 0.2895
55.1500 0.2895
55.1667 0.2894
55.1833 0.2894
55.2000 0.2894
55.2167 0.2893
55.2333 0.2993
55.2500 0.3093
55.2667 0.3193
55.2833 0.3293
55.3000 0.3393
55.3167 0.3493
55.3333 0.3593
55.3500 0.3693
55.3667 0.3793
55.3833 0.3893
55.4000 0.3993
55.4167 0.4093
55.4333 0.4193
55.4500 0.4293
55.4667 0.4393
55.4833 0.2887
55.5000 0.2887
55.5167 0.2886
55.5333 0.2886
55.5500 0.2885
55.5667 0.2885
55.5833 0.2885
55.6000 0.2884
55.6167 0.2884
55.6333 0.2884
55.6500 0.2883
55.6667 0.2883
55.6833 0.2882
55.7000 0.2882
55.7167 0.2882
55.7333 0.2982
55.7500 0.3082
55.7667 0.3182
55.7833 0.3282
55.8000 0.3382
55.8167 0.3482
55.8333 0.3582
55.8500 0.3682
55.8667 0.3782
55.8833 0.3882
55.9000 0.3982
55.9167 0.4082
55.9333 0.4182
55.9500 0.4282
55.9667 0.4382
55.9833 0.2875
56.0000 0.2875
56.0167 0.2875
56.0333 0.2874
56.0500 0.2874
56.0667 0.2874
56.0833 0.2873
56.1000 0.2873
56.1167 0.2872
56.1333 0.2872
56.1500 0.2872
56.1667 0.2871
56.1833 0.2871
56.2000 0.2870
56.2167 0.2870
56.2333 0.2970
56.2500 0.3070
56.2667 0.3170
56.2833 0.3270
56.3000 0.3370
56.3167 0.3470
56.3333 0.3570
56.3500 0.3670
56.3667 0.3770
56.3833 0.3870
56.4000 0.3970
56.4167 0.4070
56.4333 0.4170
56.4500 0.4270
56.4667 0.4370
56.4833 0.2864
56.5000 0.2864
56.5167 0.2863
56.5333 0.2863
56.5500 0.2862
56.5667 0.2862
56.5833 0.2862
56.6000 0.2861
56.6167 0.2861
56.6333 0.2861
56.6500 0.2860
56.6667 0.2860
56.6833 0.2859
56.7000 0.2859
56.7167 0.2859
56.7333 0.2959
56.7500 0.3059
56.7667 0.3159
56.7833 0.3259
56.8000 0.3359
56.8167 0.3459
56.8333 0.3559
56.8500 0.3659
56.8667 0.3759
56.8833 0.3859
56.9000 0.3959
56.9167 0.4059
56.9333 0.4159
56.9500 0.4259
56.9667 0.4359
56.9833 0.2853
57.0000 0.2852
57.0167 0.2852
57.0333 0.2851
57.0500 0.2851
57.0667 0.2851
57.0833 0.2850
57.1000 0.2850
57.1167 0.2850
57.1333 0.2849
57.1500 0.2849
57.1667 0.2848
57.1833 0.2848
57.2000 0.2848
57.2167 0.2847
57.2333 0.2947
57.2500 0.3047
57.2667 0.3147
57.2833 0.3247
57.3000 0.3347
57.3167 0.3447
57.3333 0.3547
57.3500 0.3647
57.3667 0.3747
57.3833 0.3847
57.4000 0.3947
57.4167 0.4047
57.4333 0.4147
57.4500 0.4247
57.4667 0.4347
57.4833 0.2841
57.5000 0.2841
57.5167 0.2840
57.5333 0.2840
57.5500 0.2840
57.5667 0.2839
57.5833 0.2839
57.6000 0.2839
57.6167 0.2838
57.6333 0.2838
57.6500 0.2837
57.6667 0.2837
57.6833 0.2837
57.7000 0.2836
57.7167 0.2836
57.7333 0.2936
57.7500 0.3036
57.7667 0.3136
57.7833 0.3236
57.8000 0.3336
57.8167 0.3436
57.8333 0.3536
57.8500 0.3636
57.8667 0.3736
57.8833 0.3836
57.9000 0.3936
57.9167 0.4036
57.9333 0.4136
57.9500 0.4236
57.9667 0.4336
57.9833 0.2830
58.0000 0.2829
58.0167 0.2829
58.0333 0.2829
58.0500 0.2828
58.0667 0.2828
58.0833 0.2828
58.1000 0.2827
58.1167 0.2827
58.1333 0.2826
58.1500 0.2826
58.1667 0.2826
58.1833 0.2825
58.2000 0.2825
58.2167 0.2825
58.2333 0.2925
58.2500 0.3025
58.2667 0.3125
58.2833 0.3225
58.3000 0.3325
58.3167 0.3425
58.3333 0.3525
58.3500 0.3625
58.3667 0.3725
58.3833 0.3825
58.4000 0.3925
58.4167 0.4025
58.4333 0.4125
58.4500 0.4225
58.4667 0.4325
58.4833 0.2819
58.5000 0.2818
58.5167 0.2818
58.5333 0.2817
58.5500 0.2817
58.5667 0.2817
58.5833 0.2816
58.6000 0.2816
58.6167 0.2816
58.6333 0.2815
58.6500 0.2815
58.6667 0.2814
58.6833 0.2814
58.7000 0.2814
58.7167 0.2813
58.7333 0.2913
58.7500 0.3013
58.7667 0.3113
58.7833 0.3213
58.8000 0.3313
58.8167 0.3413
58.8333 0.3513
58.8500 0.3613
58.8667 0.3713
58.8833 0.3813
58.9000 0.3913
58.9167 0.4013
58.9333 0.4113
58.9500 0.4213
58.9667 0.4313
58.9833 0.2807
59.0000 0.2807
59.0167 0.2807
59.0333 0.2806
59.0500 0.2806
59.0667 0.2805
59.0833 0.2805
59.1000 0.2805
59.1167 0.2804
59.1333 0.2804
59.1500 0.2804
59.1667 0.2803
59.1833 0.2803
59.2000 0.2802
59.2167 0.2802
59.2333 0.2902
59.2500 0.3002
59.2667 0.3102
59.2833 0.3202
59.3000 0.3302
59.3167 0.3402
59.3333 0.3502
59.3500 0.3602
59.3667 0.3702
59.3833 0.3802
59.4000 0.3902
59.4167 0.4002
59.4333 0.4102
59.4500 0.4202
59.4667 0.4302
59.4833 0.2796
59.5000 0.2796
59.5167 0.2795
59.5333 0.2795
59.5500 0.2795
59.5667 0.2794
59.5833 0.2794
59.6000 0.2793
59.6167 0.2793
59.6333 0.2793
59.6500 0.2792
59.6667 0.2792
59.6833 0.2792
59.7000 0.2791
59.7167 0.2791
59.7333 0.2891
59.7500 0.2991
59.7667 0.3091
59.7833 0.3191
59.8000 0.3291
59.8167 0.3391
59.8333 0.3491
59.8500 0.3591
59.8667 0.3691
59.8833 0.3791
59.9000 0.3891
59.9167 0.3991
59.9333 0.4091
59.9500 0.4191
59.9667 0.4291
59.9833 0.2785
60.0000 0.2785
60.0167 0.2784
60.0333 0.2784
60.0500 0.2783
60.0667 0.2783
60.0833 0.2783
60.1000 0.2782
60.1167 0.2782
60.1333 0.2782
60.1500 0.2781
60.1667 0.2781
60.1833 0.2780
60.2000 0.2780
60.2167 0.2780
60.2333 0.2880
60.2500 0.2980
60.2667 0.3080
60.2833 0.3180
60.3000 0.3280
60.3167 0.3380
60.3333 0.3480
60.3500 0.3580
60.3667 0.3680
60.3833 0.3780
60.4000 0.3880
60.4167 0.3980
60.4333 0.4080
60.4500 0.4180
60.4667 0.4280
60.4833 0.2774
60.5000 0.2773
60.5167 0.2773
60.5333 0.2773
60.5500 0.2772
60.5667 0.2772
60.5833 0.2772
60.6000 0.2771
60.6167 0.2771
60.6333 0.2770
60.6500 0.2770
60.6667 0.2770
60.6833 0.2769
60.7000 0.2769
60.7167 0.2769
60.7333 0.2869
60.7500 0.2969
60.7667 0.3069
60.7833 0.3169
60.8000 0.3269
60.8167 0.3369
60.8333 0.3469
60.8500 0.3569
60.8667 0.3669
60.8833 0.3769
60.9000 0.3869
60.9167 0.3969
60.9333 0.4069
60.9500 0.4169
60.9667 0.4269
60.9833 0.2763
61.0000 0.2762
61.0167 0.2762
61.0333 0.2762
61.0500 0.2761
61.0667 0.2761
61.0833 0.2760
61.1000 0.2760
61.1167 0.2760
61.1333 0.2759
61.1500 0.2759
61.1667 0.2759
61.1833 0.2758
61.2000 0.2758
61.2167 0.2758
61.2333 0.2858
61.2500 0.2958
61.2667 0.3058
61.2833 0.3158
61.3000 0.3258
61.3167 0.3358
61.3333 0.3458
61.3500 0.3558
61.3667 0.3658
61.3833 0.3758
61.4000 0.3858
61.4167 0.3958
61.4333 0.4058
61.4500 0.4158
61.4667 0.4258
61.4833 0.2752
61.5000 0.2751
61.5167 0.2751
61.5333 0.2751
61.5500 0.2750
61.5667 0.2750
61.5833 0.2749
61.6000 0.2749
61.6167 0.2749
61.6333 0.2748
61.6500 0.2748
61.6667 0.2748
61.6833 0.2747
61.7000 0.2747
61.7167 0.2747
61.7333 0.2847
61.7500 0.2947
61.7667 0.3047
61.7833 0.3147
61.8000 0.3247
61.8167 0.3347
61.8333 0.3447
61.8500 0.3547
61.8667 0.3647
61.8833 0.3747
61.9000 0.3847
61.9167 0.3947
61.9333 0.4047
61.9500 0.4147
61.9667 0.4247
61.9833 0.2741
62.0000 0.2740
62.0167 0.2740
62.0333 0.2740
62.0500 0.2739
62.0667 0.2739
62.0833 0.2739
62.1000 0.2738
62.1167 0.2738
62.1333 0.2737
62.1500 0.2737
62.1667 0.2737
62.1833 0.2736
62.2000 0.2736
62.2167 0.2736
62.2333 0.2836
62.2500 0.2936
62.2667 0.3036
62.2833 0.3136
62.3000 0.3236
62.3167 0.3336
62.3333 0.3436
62.3500 0.3536
62.3667 0.3636
62.3833 0.3736
62.4000 0.3836
62.4167 0.3936
62.4333 0.4036
62.4500 0.4136
62.4667 0.4236
62.4833 0.2730
62.5000 0.2729
62.5167 0.2729
62.5333 0.2729
62.5500 0.2728
62.5667 0.2728
62.5833 0.2728
62.6000 0.2727
62.6167 0.2727
62.6333 0.2726
62.6500 0.2726
62.6667 0.2726
62.6833 0.2725
62.7000 0.2725
62.7167 0.2725
62.7333 0.2825
62.7500 0.2925
62.7667 0.3025
62.7833 0.3125
62.8000 0.3225
62.8167 0.3325
62.8333 0.3425
62.8500 0.3525
62.8667 0.3625
62.8833 0.3725
62.9000 0.3825
62.9167 0.3925
62.9333 0.4025
62.9500 0.4125
62.9667 0.4225
62.9833 0.2719
63.0000 0.2718
63.0167 0.2718
63.0333 0.2718
63.0500 0.2717
63.0667 0.2717
63.0833 0.2717
63.1000 0.2716
63.1167 0.2716
63.1333 0.2716
63.1500 0.2715
63.1667 0.2715
63.1833 0.2715
63.2000 0.2714
63.2167 0.2714
63.2333 0.2814
63.2500 0.2914
63.2667 0.3014
63.2833 0.3114
63.3000 0.3214
63.3167 0.3314
63.3333 0.3414
63.3500 0.3514
63.3667 0.3614
63.3833 0.3714
63.4000 0.3814
63.4167 0.3914
63.4333 0.4014
63.4500 0.4114
63.4667 0.4214
63.4833 0.2708
63.5000 0.2708
63.5167 0.2707
63.5333 0.2707
63.5500 0.2707
63.5667 0.2706
63.5833 0.2706
63.6000 0.2705
63.6167 0.2705
63.6333 0.2705
63.6500 0.2704
63.6667 0.2704
63.6833 0.2704
63.7000 0.2703
63.7167 0.2703
63.7333 0.2803
63.7500 0.2903
63.7667 0.3003
63.7833 0.3103
63.8000 0.3203
63.8167 0.3303
63.8333 0.3403
63.8500 0.3503
63.8667 0.3603
63.8833 0.3703
63.9000 0.3803
63.9167 0.3903
63.9333 0.4003
63.9500 0.4103
63.9667 0.4203
63.9833 0.2697
64.0000 0.2697
64.0167 0.2696
64.0333 0.2696
64.0500 0.2696
64.0667 0.2695
64.0833 0.2695
64.1000 0.2695
64.1167 0.2694
64.1333 0.2694
64.1500 0.2694
64.1667 0.2693
64.1833 0.2693
64.2000 0.2693
64.2167 0.2692
64.2333 0.2792
64.2500 0.2892
64.2667 0.2992
64.2833 0.3092
64.3000 0.3192
64.3167 0.3292
64.3333 0.3392
64.3500 0.3492
64.3667 0.3592
64.3833 0.3692
64.4000 0.3792
64.4167 0.3892
64.4333 0.3992
64.4500 0.4092
64.4667 0.4192
64.4833 0.2686
64.5000 0.2686
64.5167 0.2686
64.5333 0.2685
64.5500 0.2685
64.5667 0.2685
64.5833 0.2684
64.6000 0.2684
64.6167 0.2684
64.6333 0.2683
64.6500 0.2683
64.6667 0.2682
64.6833 0.2682
64.7000 0.2682
64.7167 0.2681
64.7333 0.2781
64.7500 0.2881
64.7667 0.2981
64.7833 0.3081
64.8000 0.3181
64.8167 0.3281
64.8333 0.3381
64.8500 0.3481
64.8667 0.3581
64.8833 0.3681
64.9000 0.3781
64.9167 0.3881
64.9333 0.3981
64.9500 0.4081
64.9667 0.4181
64.9833 0.2676
65.0000 0.2675
65.0167 0.2675
65.0333 0.2675
65.0500 0.2674
65.0667 0.2674
65.0833 0.2674
65.1000 0.2673
65.1167 0.2673
65.1333 0.2672
65.1500 0.2672
65.1667 0.2672
65.1833 0.2671
65.2000 0.2671
65.2167 0.2671
65.2333 0.2771
65.2500 0.2871
65.2667 0.2971
65.2833 0.3071
65.3000 0.3171
65.3167 0.3271
65.3333 0.3371
65.3500 0.3471
65.3667 0.3571
65.3833 0.3671
65.4000 0.3771
65.4167 0.3871
65.4333 0.3971
65.4500 0.4071
65.4667 0.4171
65.4833 0.2665
65.5000 0.2665
65.5167 0.2664
65.5333 0.2664
65.5500 0.2664
65.5667 0.2663
65.5833 0.2663
65.6000 0.2663
65.6167 0.2662
65.6333 0.2662
65.6500 0.2661
65.6667 0.2661
65.6833 0.2661
65.7000 0.2660
65.7167 0.2660
65.7333 0.2760
65.7500 0.2860
65.7667 0.2960
65.7833 0.3060
65.8000 0.3160
65.8167 0.3260
65.8333 0.3360
65.8500 0.3460
65.8667 0.3560
65.8833 0.3660
65.9000 0.3760
65.9167 0.3860
65.9333 0.3960
65.9500 0.4060
65.9667 0.4160
65.9833 0.2654
66.0000 0.2654
66.0167 0.2654
66.0333 0.2653
66.0500 0.2653
66.0667 0.2653
66.0833 0.2652
66.1000 0.2652
66.1167 0.2652
66.1333 0.2651
66.1500 0.2651
66.1667 0.2650
66.1833 0.2650
66.2000 0.2650
66.2167 0.2649
66.2333 0.2749
66.2500 0.2849
66.2667 0.2949
66.2833 0.3049
66.3000 0.3149
66.3167 0.3249
66.3333 0.3349
66.3500 0.3449
66.3667 0.3549
66.3833 0.3649
66.4000 0.3749
66.4167 0.3849
66.4333 0.3949
66.4500 0.4049
66.4667 0.4149
66.4833 0.2644
66.5000 0.2643
66.5167 0.2643
66.5333 0.2643
66.5500 0.2642
66.5667 0.2642
66.5833 0.2642
66.6000 0.2641
66.6167 0.2641
66.6333 0.2641
66.6500 0.2640
66.6667 0.2640
66.6833 0.2640
66.7000 0.2639
66.7167 0.2639
66.7333 0.2739
66.7500 0.2839
66.7667 0.2939
66.7833 0.3039
66.8000 0.3139
66.8167 0.3239
66.8333 0.3339
66.8500 0.3439
66.8667 0.3539
66.8833 0.3639
66.9000 0.3739
66.9167 0.3839
66.9333 0.3939
66.9500 0.4039
66.9667 0.4139
66.9833 0.2633
67.0000 0.2633
67.0167 0.2633
67.0333 0.2632
67.0500 0.2632
67.0667 0.2631
67.0833 0.2631
67.1000 0.2631
67.1167 0.2630
67.1333 0.2630
67.1500 0.2630
67.1667 0.2629
67.1833 0.2629
67.2000 0.2629
67.2167 0.2628
67.2333 0.2728
67.2500 0.2828
67.2667 0.2928
67.2833 0.3028
67.3000 0.3128
67.3167 0.3228
67.3333 0.3328
67.3500 0.3428
67.3667 0.3528
67.3833 0.3628
67.4000 0.3728
67.4167 0.3828
67.4333 0.3928
67.4500 0.4028
67.4667 0.4128
67.4833 0.2623
67.5000 0.2622
67.5167 0.2622
67.5333 0.2622
67.5500 0.2621
67.5667 0.2621
67.5833 0.2621
67.6000 0.2620
67.6167 0.2620
67.6333 0.2620
67.6500 0.2619
67.6667 0.2619
67.6833 0.2619
67.7000 0.2618
67.7167 0.2618
67.7333 0.2718
67.7500 0.2818
67.7667 0.2918
67.7833 0.3018
67.8000 0.3118
67.8167 0.3218
67.8333 0.3318
67.8500 0.3418
67.8667 0.3518
67.8833 0.3618
67.9000 0.3718
67.9167 0.3818
67.9333 0.3918
67.9500 0.4018
67.9667 0.4118
67.9833 0.2612
68.0000 0.2612
68.0167 0.2612
68.0333 0.2611
68.0500 0.2611
68.0667 0.2611
68.0833 0.2610
68.1000 0.2610
68.1167 0.2609
68.1333 0.2609
68.1500 0.2609
68.1667 0.2608
68.1833 0.2608
68.2000 0.2608
68.2167 0.2607
68.2333 0.2707
68.2500 0.2807
68.2667 0.2907
68.2833 0.3007
68.3000 0.3107
68.3167 0.3207
68.3333 0.3307
68.3500 0.3407
68.3667 0.3507
68.3833 0.3607
68.4000 0.3707
68.4167 0.3807
68.4333 0.3907
68.4500 0.4007
68.4667 0.4107
68.4833 0.2602
68.5000 0.2601
68.5167 0.2601
68.5333 0.2601
68.5500 0.2600
68.5667 0.2600
68.5833 0.2600
68.6000 0.2599
68.6167 0.2599
68.6333 0.2599
68.6500 0.2598
68.6667 0.2598
68.6833 0.2598
68.7000 0.2597
68.7167 0.2597
68.7333 0.2697
68.7500 0.2797
68.7667 0.2897
68.7833 0.2997
68.8000 0.3097
68.8167 0.3197
68.8333 0.3297
68.8500 0.3397
68.8667 0.3497
68.8833 0.3597
68.9000 0.3697
68.9167 0.3797
68.9333 0.3897
68.9500 0.3997
68.9667 0.4097
68.9833 0.2591
69.0000 0.2591
69.0167 0.2591
69.0333 0.2590
69.0500 0.2590
69.0667 0.2590
69.0833 0.2589
69.1000 0.2589
69.1167 0.2589
69.1333 0.2588
69.1500 0.2588
69.1667 0.2588
69.1833 0.2587
69.2000 0.2587
69.2167 0.2587
69.2333 0.2687
69.2500 0.2787
69.2667 0.2887
69.2833 0.2987
69.3000 0.3087
69.3167 0.3187
69.3333 0.3287
69.3500 0.3387
69.3667 0.3487
69.3833 0.3587
69.4000 0.3687
69.4167 0.3787
69.4333 0.3887
69.4500 0.3987
69.4667 0.4087
69.4833 0.2581
69.5000 0.2581
69.5167 0.2580
69.5333 0.2580
69.5500 0.2580
69.5667 0.2579
69.5833 0.2579
69.6000 0.2579
69.6167 0.2578
69.6333 0.2578
69.6500 0.2578
69.6667 0.2577
69.6833 0.2577
69.7000 0.2577
69.7167 0.2576
69.7333 0.2676
69.7500 0.2776
69.7667 0.2876
69.7833 0.2976
69.8000 0.3076
69.8167 0.3176
69.8333 0.3276
69.8500 0.3376
69.8667 0.3476
69.8833 0.3576
69.9000 0.3676
69.9167 0.3776
69.9333 0.3876
69.9500 0.3976
69.9667 0.4076
69.9833 0.2571
70.0000 0.2570
70.0167 0.2570
70.0333 0.2570
70.0500 0.2569
70.0667 0.2569
70.0833 0.2569
70.1000 0.2568
70.1167 0.2568
70.1333 0.2568
70.1500 0.2567
70.1667 0.2567
70.1833 0.2567
70.2000 0.2566
70.2167 0.2566
70.2333 0.2666
70.2500 0.2766
70.2667 0.2866
70.2833 0.2966
70.3000 0.3066
70.3167 0.3166
70.3333 0.3266
70.3500 0.3366
70.3667 0.3466
70.3833 0.3566
70.4000 0.3666
70.4167 0.3766
70.4333 0.3866
70.4500 0.3966
70.4667 0.4066
70.4833 0.2561
70.5000 0.2560
70.5167 0.2560
70.5333 0.2559
70.5500 0.2559
70.5667 0.2559
70.5833 0.2558
70.6000 0.2558
70.6167 0.2558
70.6333 0.2557
70.6500 0.2557
70.6667 0.2557
70.6833 0.2556
70.7000 0.2556
70.7167 0.2556
70.7333 0.2656
70.7500 0.2756
70.7667 0.2856
70.7833 0.2956
70.8000 0.3056
70.8167 0.3156
70.8333 0.3256
70.8500 0.3356
70.8667 0.3456
70.8833 0.3556
70.9000 0.3656
70.9167 0.3756
70.9333 0.3856
70.9500 0.3956
70.9667 0.4056
70.9833 0.2550
71.0000 0.2550
71.0167 0.2550
71.0333 0.2549
71.0500 0.2549
71.0667 0.2549
71.0833 0.2548
71.1000 0.2548
71.1167 0.2548
71.1333 0.2547
71.1500 0.2547
71.1667 0.2547
71.1833 0.2546
71.2000 0.2546
71.2167 0.2546
71.2333 0.2646
71.2500 0.2746
71.2667 0.2846
71.2833 0.2946
71.3000 0.3046
71.3167 0.3146
71.3333 0.3246
71.3500 0.3346
71.3667 0.3446
71.3833 0.3546
71.4000 0.3646
71.4167 0.3746
71.4333 0.3846
71.4500 0.3946
71.4667 0.4046
71.4833 0.2540
71.5000 0.2540
71.5167 0.2539
71.5333 0.2539
71.5500 0.2539
71.5667 0.2538
71.5833 0.2538
71.6000 0.2538
71.6167 0.2537
71.6333 0.2537
71.6500 0.2537
71.6667 0.2536
71.6833 0.2536
71.7000 0.2536
71.7167 0.2535
71.7333 0.2635
71.7500 0.2735
71.7667 0.2835
71.7833 0.2935
71.8000 0.3035
71.8167 0.3135
71.8333 0.3235
71.8500 0.3335
71.8667 0.3435
71.8833 0.3535
71.9000 0.3635
71.9167 0.3735
71.9333 0.3835
71.9500 0.3935
71.9667 0.4035
71.9833 0.2530
72.0000 0.2530
72.0167 0.2529
72.0333 0.2529
72.0500 0.2529
72.0667 0.2528
72.0833 0.2528
72.1000 0.2528
72.1167 0.2527
72.1333 0.2527
72.1500 0.2527
72.1667 0.2526
72.1833 0.2526
72.2000 0.2526
72.2167 0.2525
72.2333 0.2625
72.2500 0.2725
72.2667 0.2825
72.2833 0.2925
72.3000 0.3025
72.3167 0.3125
72.3333 0.3225
72.3500 0.3325
72.3667 0.3425
72.3833 0.3525
72.4000 0.3625
72.4167 0.3725
72.4333 0.3825
72.4500 0.3925
72.4667 0.4025
72.4833 0.2520
72.5000 0.2520
72.5167 0.2519
72.5333 0.2519
72.5500 0.2519
72.5667 0.2518
72.5833 0.2518
72.6000 0.2518
72.6167 0.2517
72.6333 0.2517
72.6500 0.2517
72.6667 0.2516
72.6833 0.2516
72.7000 0.2516
72.7167 0.2515
72.7333 0.2615
72.7500 0.2715
72.7667 0.2815
72.7833 0.2915
72.8000 0.3015
72.8167 0.3115
72.8333 0.3215
72.8500 0.3315
72.8667 0.3415
72.8833 0.3515
72.9000 0.3615
72.9167 0.3715
72.9333 0.3815
72.9500 0.3915
72.9667 0.4015
72.9833 0.2510
73.0000 0.2509
73.0167 0.2509
73.0333 0.2509
73.0500 0.2508
73.0667 0.2508
73.0833 0.2508
73.1000 0.2507
73.1167 0.2507
73.1333 0.2507
73.1500 0.2506
73.1667 0.2506
73.1833 0.2506
73.2000 0.2505
73.2167 0.2505
73.2333 0.2605
73.2500 0.2705
73.2667 0.2805
73.2833 0.2905
73.3000 0.3005
73.3167 0.3105
73.3333 0.3205
73.3500 0.3305
73.3667 0.3405
73.3833 0.3505
73.4000 0.3605
73.4167 0.3705
73.4333 0.3805
73.4500 0.3905
73.4667 0.4005
73.4833 0.2500
73.5000 0.2499
73.5167 0.2499
73.5333 0.2499
73.5500 0.2498
73.5667 0.2498
73.5833 0.2498
73.6000 0.2497
73.6167 0.2497
73.6333 0.2497
73.6500 0.2496
73.6667 0.2496
73.6833 0.2496
73.7000 0.2495
73.7167 0.2495
73.7333 0.2595
73.7500 0.2695
73.7667 0.2795
73.7833 0.2895
73.8000 0.2995
73.8167 0.3095
73.8333 0.3195
73.8500 0.3295
73.8667 0.3395
73.8833 0.3495
73.9000 0.3595
73.9167 0.3695
73.9333 0.3795
73.9500 0.3895
73.9667 0.3995
73.9833 0.2490
74.0000 0.2489
74.0167 0.2489
74.0333 0.2489
74.0500 0.2488
74.0667 0.2488
74.0833 0.2488
74.1000 0.2487
74.1167 0.2487
74.1333 0.2487
74.1500 0.2487
74.1667 0.2486
74.1833 0.2486
74.2000 0.2486
74.2167 0.2485
74.2333 0.2585
74.2500 0.2685
74.2667 0.2785
74.2833 0.2885
74.3000 0.2985
74.3167 0.3085
74.3333 0.3185
74.3500 0.3285
74.3667 0.3385
74.3833 0.3485
74.4000 0.3585
74.4167 0.3685
74.4333 0.3785
74.4500 0.3885
74.4667 0.3985
74.4833 0.2480
74.5000 0.2480
74.5167 0.2479
74.5333 0.2479
74.5500 0.2479
74.5667 0.2478
74.5833 0.2478
74.6000 0.2478
74.6167 0.2477
74.6333 0.2477
74.6500 0.2477
74.6667 0.2476
74.6833 0.2476
74.7000 0.2476
74.7167 0.2475
74.7333 0.2575
74.7500 0.2675
74.7667 0.2775
74.7833 0.2875
74.8000 0.2975
74.8167 0.3075
74.8333 0.3175
74.8500 0.3275
74.8667 0.3375
74.8833 0.3475
74.9000 0.3575
74.9167 0.3675
74.9333 0.3775
74.9500 0.3875
74.9667 0.3975
74.9833 0.2470
75.0000 0.2470
75.0167 0.2469
75.0333 0.2469
75.0500 0.2469
75.0667 0.2468
75.0833 0.2468
75.1000 0.2468
75.1167 0.2467
75.1333 0.2467
75.1500 0.2467
75.1667 0.2466
75.1833 0.2466
75.2000 0.2466
75.2167 0.2465
75.2333 0.2565
75.2500 0.2665
75.2667 0.2765
75.2833 0.2865
75.3000 0.2965
75.3167 0.3065
75.3333 0.3165
75.3500 0.3265
75.3667 0.3365
75.3833 0.3465
75.4000 0.3565
75.4167 0.3665
75.4333 0.3765
75.4500 0.3865
75.4667 0.3965
75.4833 0.2460
75.5000 0.2460
75.5167 0.2459
75.5333 0.2459
75.5500 0.2459
75.5667 0.2458
75.5833 0.2458
75.6000 0.2458
75.6167 0.2457
75.6333 0.2457
75.6500 0.2457
75.6667 0.2457
75.6833 0.2456
75.7000 0.2456
75.7167 0.2456
75.7333 0.2556
75.7500 0.2656
75.7667 0.2756
75.7833 0.2856
75.8000 0.2956
75.8167 0.3056
75.8333 0.3156
75.8500 0.3256
75.8667 0.3356
75.8833 0.3456
75.9000 0.3556
75.9167 0.3656
75.9333 0.3756
75.9500 0.3856
75.9667 0.3956
75.9833 0.2450
76.0000 0.2450
76.0167 0.2450
76.0333 0.2449
76.0500 0.2449
76.0667 0.2449
76.0833 0.2448
76.1000 0.2448
76.1167 0.2448
76.1333 0.2447
76.1500 0.2447
76.1667 0.2447
76.1833 0.2446
76.2000 0.2446
76.2167 0.2446
76.2333 0.2546
76.2500 0.2646
76.2667 0.2746
76.2833 0.2846
76.3000 0.2946
76.3167 0.3046
76.3333 0.3146
76.3500 0.3246
76.3667 0.3346
76.3833 0.3446
76.4000 0.3546
76.4167 0.3646
76.4333 0.3746
76.4500 0.3846
76.4667 0.3946
76.4833 0.2441
76.5000 0.2440
76.5167 0.2440
76.5333 0.2440
76.5500 0.2439
76.5667 0.2439
76.5833 0.2439
76.6000 0.2438
76.6167 0.2438
76.6333 0.2438
76.6500 0.2437
76.6667 0.2437
76.6833 0.2437
76.7000 0.2436
76.7167 0.2436
76.7333 0.2536
76.7500 0.2636
76.7667 0.2736
76.7833 0.2836
76.8000 0.2936
76.8167 0.3036
76.8333 0.3136
76.8500 0.3236
76.8667 0.3336
76.8833 0.3436
76.9000 0.3536
76.9167 0.3636
76.9333 0.3736
76.9500 0.3836
76.9667 0.3936
76.9833 0.2431
77.0000 0.2430
77.0167 0.2430
77.0333 0.2430
77.0500 0.2429
77.0667 0.2429
77.0833 0.2429
77.1000 0.2429
77.1167 0.2428
77.1333 0.2428
77.1500 0.2428
77.1667 0.2427
77.1833 0.2427
77.2000 0.2427
77.2167 0.2426
77.2333 0.2526
77.2500 0.2626
77.2667 0.2726
77.2833 0.2826
77.3000 0.2926
77.3167 0.3026
77.3333 0.3126
77.3500 0.3226
77.3667 0.3326
77.3833 0.3426
77.4000 0.3526
77.4167 0.3626
77.4333 0.3726
77.4500 0.3826
77.4667 0.3926
77.4833 0.2421
77.5000 0.2421
77.5167 0.2420
77.5333 0.2420
77.5500 0.2420
77.5667 0.2419
77.5833 0.2419
77.6000 0.2419
77.6167 0.2418
77.6333 0.2418
77.6500 0.2418
77.6667 0.2418
77.6833 0.2417
77.7000 0.2417
77.7167 0.2417
77.7333 0.2517
77.7500 0.2617
77.7667 0.2717
77.7833 0.2817
77.8000 0.2917
77.8167 0.3017
77.8333 0.3117
77.8500 0.3217
77.8667 0.3317
77.8833 0.3417
77.9000 0.3517
77.9167 0.3617
77.9333 0.3717
77.9500 0.3817
77.9667 0.3917
77.9833 0.2411
78.0000 0.2411
78.0167 0.2411
78.0333 0.2410
78.0500 0.2410
78.0667 0.2410
78.0833 0.2409
78.1000 0.2409
78.1167 0.2409
78.1333 0.2409
78.1500 0.2408
78.1667 0.2408
78.1833 0.2408
78.2000 0.2407
78.2167 0.2407
78.2333 0.2507
78.2500 0.2607
78.2667 0.2707
78.2833 0.2807
78.3000 0.2907
78.3167 0.3007
78.3333 0.3107
78.3500 0.3207
78.3667 0.3307
78.3833 0.3407
78.4000 0.3507
78.4167 0.3607
78.4333 0.3707
78.4500 0.3807
78.4667 0.3907
78.4833 0.2402
78.5000 0.2401
78.5167 0.2401
78.5333 0.2401
78.5500 0.2401
78.5667 0.2400
78.5833 0.2400
78.6000 0.2400
78.6167 0.2399
78.6333 0.2399
78.6500 0.2399
78.6667 0.2398
78.6833 0.2398
78.7000 0.2398
78.7167 0.2397
78.7333 0.2497
78.7500 0.2597
78.7667 0.2697
78.7833 0.2797
78.8000 0.2897
78.8167 0.2997
78.8333 0.3097
78.8500 0.3197
78.8667 0.3297
78.8833 0.3397
78.9000 0.3497
78.9167 0.3597
78.9333 0.3697
78.9500 0.3797
78.9667 0.3897
78.9833 0.2392
79.0000 0.2392
79.0167 0.2392
79.0333 0.2391
79.0500 0.2391
79.0667 0.2391
79.0833 0.2390
79.1000 0.2390
79.1167 0.2390
79.1333 0.2389
79.1500 0.2389
79.1667 0.2389
79.1833 0.2388
79.2000 0.2388
79.2167 0.2388
79.2333 0.2488
79.2500 0.2588
79.2667 0.2688
79.2833 0.2788
79.3000 0.2888
79.3167 0.2988
79.3333 0.3088
79.3500 0.3188
79.3667 0.3288
79.3833 0.3388
79.4000 0.3488
79.4167 0.3588
79.4333 0.3688
79.4500 0.3788
79.4667 0.3888
79.4833 0.2383
79.5000 0.2382
79.5167 0.2382
79.5333 0.2382
79.5500 0.2381
79.5667 0.2381
79.5833 0.2381
79.6000 0.2380
79.6167 0.2380
79.6333 0.2380
79.6500 0.2379
79.6667 0.2379
79.6833 0.2379
79.7000 0.2379
79.7167 0.2378
79.7333 0.2478
79.7500 0.2578
79.7667 0.2678
79.7833 0.2778
79.8000 0.2878
79.8167 0.2978
79.8333 0.3078
79.8500 0.3178
79.8667 0.3278
79.8833 0.3378
79.9000 0.3478
79.9167 0.3578
79.9333 0.3678
79.9500 0.3778
79.9667 0.3878
79.9833 0.2373
80.0000 0.2373
80.0167 0.2372
80.0333 0.2372
80.0500 0.2372
80.0667 0.2372
80.0833 0.2371
80.1000 0.2371
80.1167 0.2371
80.1333 0.2370
80.1500 0.2370
80.1667 0.2370
80.1833 0.2369
80.2000 0.2369
80.2167 0.2369
80.2333 0.2469
80.2500 0.2569
80.2667 0.2669
80.2833 0.2769
80.3000 0.2869
80.3167 0.2969
80.3333 0.3069
80.3500 0.3169
80.3667 0.3269
80.3833 0.3369
80.4000 0.3469
80.4167 0.3569
80.4333 0.3669
80.4500 0.3769
80.4667 0.3869
80.4833 0.2364
80.5000 0.2363
80.5167 0.2363
80.5333 0.2363
80.5500 0.2362
80.5667 0.2362
80.5833 0.2362
80.6000 0.2361
80.6167 0.2361
80.6333 0.2361
80.6500 0.2361
80.6667 0.2360
80.6833 0.2360
80.7000 0.2360
80.7167 0.2359
80.7333 0.2459
80.7500 0.2559
80.7667 0.2659
80.7833 0.2759
80.8000 0.2859
80.8167 0.2959
80.8333 0.3059
80.8500 0.3159
80.8667 0.3259
80.8833 0.3359
80.9000 0.3459
80.9167 0.3559
80.9333 0.3659
80.9500 0.3759
80.9667 0.3859
80.9833 0.2354
81.0000 0.2354
81.0167 0.2354
81.0333 0.2353
81.0500 0.2353
81.0667 0.2353
81.0833 0.2352
81.1000 0.2352
81.1167 0.2352
81.1333 0.2351
81.1500 0.2351
81.1667 0.2351
81.1833 0.2350
81.2000 0.2350
81.2167 0.2350
81.2333 0.2450
81.2500 0.2550
81.2667 0.2650
81.2833 0.2750
81.3000 0.2850
81.3167 0.2950
81.3333 0.3050
81.3500 0.3150
81.3667 0.3250
81.3833 0.3350
81.4000 0.3450
81.4167 0.3550
81.4333 0.3650
81.4500 0.3750
81.4667 0.3850
81.4833 0.2345
81.5000 0.2345
81.5167 0.2344
81.5333 0.2344
81.5500 0.2344
81.5667 0.2343
81.5833 0.2343
81.6000 0.2343
81.6167 0.2342
81.6333 0.2342
81.6500 0.2342
81.6667 0.2341
81.6833 0.2341
81.7000 0.2341
81.7167 0.2340
81.7333 0.2440
81.7500 0.2540
81.7667 0.2640
81.7833 0.2740
81.8000 0.2840
81.8167 0.2940
81.8333 0.3040
81.8500 0.3140
81.8667 0.3240
81.8833 0.3340
81.9000 0.3440
81.9167 0.3540
81.9333 0.3640
81.9500 0.3740
81.9667 0.3840
81.9833 0.2335
82.0000 0.2335
82.0167 0.2335
82.0333 0.2335
82.0500 0.2334
82.0667 0.2334
82.0833 0.2334
82.1000 0.2333
82.1167 0.2333
82.1333 0.2333
82.1500 0.2332
82.1667 0.2332
82.1833 0.2332
82.2000 0.2331
82.2167 0.2331
82.2333 0.2431
82.2500 0.2531
82.2667 0.2631
82.2833 0.2731
82.3000 0.2831
82.3167 0.2931
82.3333 0.3031
82.3500 0.3131
82.3667 0.3231
82.3833 0.3331
82.4000 0.3431
82.4167 0.3531
82.4333 0.3631
82.4500 0.3731
82.4667 0.3831
82.4833 0.2326
82.5000 0.2326
82.5167 0.2326
82.5333 0.2325
82.5500 0.2325
82.5667 0.2325
82.5833 0.2324
82.6000 0.2324
82.6167 0.2324
82.6333 0.2323
82.6500 0.2323
82.6667 0.2323
82.6833 0.2322
82.7000 0.2322
82.7167 0.2322
82.7333 0.2422
82.7500 0.2522
82.7667 0.2622
82.7833 0.2722
82.8000 0.2822
82.8167 0.2922
82.8333 0.3022
82.8500 0.3122
82.8667 0.3222
82.8833 0.3322
82.9000 0.3422
82.9167 0.3522
82.9333 0.3622
82.9500 0.3722
82.9667 0.3822
82.9833 0.2317
83.0000 0.2317
83.0167 0.2316
83.0333 0.2316
83.0500 0.2316
83.0667 0.2315
83.0833 0.2315
83.1000 0.2315
83.1167 0.2314
83.1333 0.2314
83.1500 0.2314
83.1667 0.2313
83.1833 0.2313
83.2000 0.2313
83.2167 0.2313
83.2333 0.2413
83.2500 0.2513
83.2667 0.2613
83.2833 0.2713
83.3000 0.2813
83.3167 0.2913
83.3333 0.3013
83.3500 0.3113
83.3667 0.3213
83.3833 0.3313
83.4000 0.3413
83.4167 0.3513
83.4333 0.3613
83.4500 0.3713
83.4667 0.3813
83.4833 0.2308
83.5000 0.2307
83.5167 0.2307
83.5333 0.2307
83.5500 0.2306
83.5667 0.2306
83.5833 0.2306
83.6000 0.2305
83.6167 0.2305
83.6333 0.2305
83.6500 0.2305
83.6667 0.2304
83.6833 0.2304
83.7000 0.2304
83.7167 0.2303
83.7333 0.2403
83.7500 0.2503
83.7667 0.2603
83.7833 0.2703
83.8000 0.2803
83.8167 0.2903
83.8333 0.3003
83.8500 0.3103
83.8667 0.3203
83.8833 0.3303
83.9000 0.3403
83.9167 0.3503
83.9333 0.3603
83.9500 0.3703
83.9667 0.3803
83.9833 0.2298
84.0000 0.2298
84.0167 0.2298
84.0333 0.2297
84.0500 0.2297
84.0667 0.2297
84.0833 0.2297
84.1000 0.2296
84.1167 0.2296
84.1333 0.2296
84.1500 0.2295
84.1667 0.2295
84.1833 0.2295
84.2000 0.2294
84.2167 0.2294
84.2333 0.2394
84.2500 0.2494
84.2667 0.2594
84.2833 0.2694
84.3000 0.2794
84.3167 0.2894
84.3333 0.2994
84.3500 0.3094
84.3667 0.3194
84.3833 0.3294
84.4000 0.3394
84.4167 0.3494
84.4333 0.3594
84.4500 0.3694
84.4667 0.3794
84.4833 0.2289
84.5000 0.2289
84.5167 0.2289
84.5333 0.2288
84.5500 0.2288
84.5667 0.2288
84.5833 0.2287
84.6000 0.2287
84.6167 0.2287
84.6333 0.2286
84.6500 0.2286
84.6667 0.2286
84.6833 0.2286
84.7000 0.2285
84.7167 0.2285
84.7333 0.2385
84.7500 0.2485
84.7667 0.2585
84.7833 0.2685
84.8000 0.2785
84.8167 0.2885
84.8333 0.2985
84.8500 0.3085
84.8667 0.3185
84.8833 0.3285
84.9000 0.3385
84.9167 0.3485
84.9333 0.3585
84.9500 0.3685
84.9667 0.3785
84.9833 0.2280
85.0000 0.2280
85.0167 0.2279
85.0333 0.2279
85.0500 0.2279
85.0667 0.2279
85.0833 0.2278
85.1000 0.2278
85.1167 0.2278
85.1333 0.2277
85.1500 0.2277
85.1667 0.2277
85.1833 0.2276
85.2000 0.2276
85.2167 0.2276
85.2333 0.2376
85.2500 0.2476
85.2667 0.2576
85.2833 0.2676
85.3000 0.2776
85.3167 0.2876
85.3333 0.2976
85.3500 0.3076
85.3667 0.3176
85.3833 0.3276
85.4000 0.3376
85.4167 0.3476
85.4333 0.3576
85.4500 0.3676
85.4667 0.3776
85.4833 0.2271
85.5000 0.2271
85.5167 0.2270
85.5333 0.2270
85.5500 0.2270
85.5667 0.2269
85.5833 0.2269
85.6000 0.2269
85.6167 0.2269
85.6333 0.2268
85.6500 0.2268
85.6667 0.2268
85.6833 0.2267
85.7000 0.2267
85.7167 0.2267
85.7333 0.2367
85.7500 0.2467
85.7667 0.2567
85.7833 0.2667
85.8000 0.2767
85.8167 0.2867
85.8333 0.2967
85.8500 0.3067
85.8667 0.3167
85.8833 0.3267
85.9000 0.3367
85.9167 0.3467
85.9333 0.3567
85.9500 0.3667
85.9667 0.3767
85.9833 0.2262
86.0000 0.2262
86.0167 0.2261
86.0333 0.2261
86.0500 0.2261
86.0667 0.2260
86.0833 0.2260
86.1000 0.2260
86.1167 0.2260
86.1333 0.2259
86.1500 0.2259
86.1667 0.2259
86.1833 0.2258
86.2000 0.2258
86.2167 0.2258
86.2333 0.2358
86.2500 0.2458
86.2667 0.2558
86.2833 0.2658
86.3000 0.2758
86.3167 0.2858
86.3333 0.2958
86.3500 0.3058
86.3667 0.3158
86.3833 0.3258
86.4000 0.3358
86.4167 0.3458
86.4333 0.3558
86.4500 0.3658
86.4667 0.3758
86.4833 0.2253
86.5000 0.2253
86.5167 0.2252
86.5333 0.2252
86.5500 0.2252
86.5667 0.2251
86.5833 0.2251
86.6000 0.2251
86.6167 0.2250
86.6333 0.2250
86.6500 0.2250
86.6667 0.2250
86.6833 0.2249
86.7000 0.2249
86.7167 0.2249
86.7333 0.2349
86.7500 0.2449
86.7667 0.2549
86.7833 0.2649
86.8000 0.2749
86.8167 0.2849
86.8333 0.2949
86.8500 0.3049
86.8667 0.3149
86.8833 0.3249
86.9000 0.3349
86.9167 0.3449
86.9333 0.3549
86.9500 0.3649
86.9667 0.3749
86.9833 0.2244
87.0000 0.2244
87.0167 0.2243
87.0333 0.2243
87.0500 0.2243
87.0667 0.2242
87.0833 0.2242
87.1000 0.2242
87.1167 0.2241
87.1333 0.2241
87.1500 0.2241
87.1667 0.2241
87.1833 0.2240
87.2000 0.2240
87.2167 0.2240
87.2333 0.2340
87.2500 0.2440
87.2667 0.2540
87.2833 0.2640
87.3000 0.2740
87.3167 0.2840
87.3333 0.2940
87.3500 0.3040
87.3667 0.3140
87.3833 0.3240
87.4000 0.3340
87.4167 0.3440
87.4333 0.3540
87.4500 0.3640
87.4667 0.3740
87.4833 0.2235
87.5000 0.2235
87.5167 0.2234
87.5333 0.2234
87.5500 0.2234
87.5667 0.2233
87.5833 0.2233
87.6000 0.2233
87.6167 0.2233
87.6333 0.2232
87.6500 0.2232
87.6667 0.2232
87.6833 0.2231
87.7000 0.2231
87.7167 0.2231
87.7333 0.2331
87.7500 0.2431
87.7667 0.2531
87.7833 0.2631
87.8000 0.2731
87.8167 0.2831
87.8333 0.2931
87.8500 0.3031
87.8667 0.3131
87.8833 0.3231
87.9000 0.3331
87.9167 0.3431
87.9333 0.3531
87.9500 0.3631
87.9667 0.3731
87.9833 0.2226
88.0000 0.2226
88.0167 0.2225
88.0333 0.2225
88.0500 0.2225
88.0667 0.2225
88.0833 0.2224
88.1000 0.2224
88.1167 0.2224
88.1333 0.2223
88.1500 0.2223
88.1667 0.2223
88.1833 0.2222
88.2000 0.2222
88.2167 0.2222
88.2333 0.2322
88.2500 0.2422
88.2667 0.2522
88.2833 0.2622
88.3000 0.2722
88.3167 0.2822
88.3333 0.2922
88.3500 0.3022
88.3667 0.3122
88.3833 0.3222
88.4000 0.3322
88.4167 0.3422
88.4333 0.3522
88.4500 0.3622
88.4667 0.3722
88.4833 0.2217
88.5000 0.2217
88.5167 0.2217
88.5333 0.2216
88.5500 0.2216
88.5667 0.2216
88.5833 0.2215
88.6000 0.2215
88.6167 0.2215
88.6333 0.2214
88.6500 0.2214
88.6667 0.2214
88.6833 0.2214
88.7000 0.2213
88.7167 0.2213
88.7333 0.2313
88.7500 0.2413
88.7667 0.2513
88.7833 0.2613
88.8000 0.2713
88.8167 0.2813
88.8333 0.2913
88.8500 0.3013
88.8667 0.3113
88.8833 0.3213
88.9000 0.3313
88.9167 0.3413
88.9333 0.3513
88.9500 0.3613
88.9667 0.3713
88.9833 0.2208
89.0000 0.2208
89.0167 0.2208
89.0333 0.2207
89.0500 0.2207
89.0667 0.2207
89.0833 0.2207
89.1000 0.2206
89.1167 0.2206
89.1333 0.2206
89.1500 0.2205
89.1667 0.2205
89.1833 0.2205
89.2000 0.2204
89.2167 0.2204
89.2333 0.2304
89.2500 0.2404
89.2667 0.2504
89.2833 0.2604
89.3000 0.2704
89.3167 0.2804
89.3333 0.2904
89.3500 0.3004
89.3667 0.3104
89.3833 0.3204
89.4000 0.3304
89.4167 0.3404
89.4333 0.3504
89.4500 0.3604
89.4667 0.3704
89.4833 0.2199
89.5000 0.2199
89.5167 0.2199
89.5333 0.2199
89.5500 0.2198
89.5667 0.2198
89.5833 0.2198
89.6000 0.2197
89.6167 0.2197
89.6333 0.2197
89.6500 0.2197
89.6667 0.2196
89.6833 0.2196
89.7000 0.2196
89.7167 0.2195
89.7333 0.2295
89.7500 0.2395
89.7667 0.2495
89.7833 0.2595
89.8000 0.2695
89.8167 0.2795
89.8333 0.2895
89.8500 0.2995
89.8667 0.3095
89.8833 0.3195
89.9000 0.3295
89.9167 0.3395
89.9333 0.3495
89.9500 0.3595
89.9667 0.3695
89.9833 0.2191
90.0000 0.2190
90.0167 0.2190
90.0333 0.2190
90.0500 0.2190
90.0667 0.2189
90.0833 0.2189
90.1000 0.2189
90.1167 0.2188
90.1333 0.2188
90.1500 0.2188
90.1667 0.2187
90.1833 0.2187
90.2000 0.2187
90.2167 0.2187
90.2333 0.2287
90.2500 0.2387
90.2667 0.2487
90.2833 0.2587
90.3000 0.2687
90.3167 0.2787
90.3333 0.2887
90.3500 0.2987
90.3667 0.3087
90.3833 0.3187
90.4000 0.3287
90.4167 0.3387
90.4333 0.3487
90.4500 0.3587
90.4667 0.3687
90.4833 0.2182
90.5000 0.2182
90.5167 0.2181
90.5333 0.2181
90.5500 0.2181
90.5667 0.2180
90.5833 0.2180
90.6000 0.2180
90.6167 0.2180
90.6333 0.2179
90.6500 0.2179
90.6667 0.2179
90.6833 0.2178
90.7000 0.2178
90.7167 0.2178
90.7333 0.2278
90.7500 0.2378
90.7667 0.2478
90.7833 0.2578
90.8000 0.2678
90.8167 0.2778
90.8333 0.2878
90.8500 0.2978
90.8667 0.3078
90.8833 0.3178
90.9000 0.3278
90.9167 0.3378
90.9333 0.3478
90.9500 0.3578
90.9667 0.3678
90.9833 0.2173
91.0000 0.2173
91.0167 0.2173
91.0333 0.2172
91.0500 0.2172
91.0667 0.2172
91.0833 0.2171
91.1000 0.2171
91.1167 0.2171
91.1333 0.2171
91.1500 0.2170
91.1667 0.2170
91.1833 0.2170
91.2000 0.2169
91.2167 0.2169
91.2333 0.2269
91.2500 0.2369
91.2667 0.2469
91.2833 0.2569
91.3000 0.2669
91.3167 0.2769
91.3333 0.2869
91.3500 0.2969
91.3667 0.3069
91.3833 0.3169
91.4000 0.3269
91.4167 0.3369
91.4333 0.3469
91.4500 0.3569
91.4667 0.3669
91.4833 0.2165
91.5000 0.2164
91.5167 0.2164
91.5333 0.2164
91.5500 0.2163
91.5667 0.2163
91.5833 0.2163
91.6000 0.2163
91.6167 0.2162
91.6333 0.2162
91.6500 0.2162
91.6667 0.2161
91.6833 0.2161
91.7000 0.2161
91.7167 0.2161
91.7333 0.2261
91.7500 0.2361
91.7667 0.2461
91.7833 0.2561
91.8000 0.2661
91.8167 0.2761
91.8333 0.2861
91.8500 0.2961
91.8667 0.3061
91.8833 0.3161
91.9000 0.3261
91.9167 0.3361
91.9333 0.3461
91.9500 0.3561
91.9667 0.3661
91.9833 0.2156
92.0000 0.2156
92.0167 0.2155
92.0333 0.2155
92.0500 0.2155
92.0667 0.2154
92.0833 0.2154
92.1000 0.2154
92.1167 0.2154
92.1333 0.2153
92.1500 0.2153
92.1667 0.2153
92.1833 0.2152
92.2000 0.2152
92.2167 0.2152
92.2333 0.2252
92.2500 0.2352
92.2667 0.2452
92.2833 0.2552
92.3000 0.2652
92.3167 0.2752
92.3333 0.2852
92.3500 0.2952
92.3667 0.3052
92.3833 0.3152
92.4000 0.3252
92.4167 0.3352
92.4333 0.3452
92.4500 0.3552
92.4667 0.3652
92.4833 0.2147
92.5000 0.2147
92.5167 0.2147
92.5333 0.2146
92.5500 0.2146
92.5667 0.2146
92.5833 0.2146
92.6000 0.2145
92.6167 0.2145
92.6333 0.2145
92.6500 0.2144
92.6667 0.2144
92.6833 0.2144
92.7000 0.2144
92.7167 0.2143
92.7333 0.2243
92.7500 0.2343
92.7667 0.2443
92.7833 0.2543
92.8000 0.2643
92.8167 0.2743
92.8333 0.2843
92.8500 0.2943
92.8667 0.3043
92.8833 0.3143
92.9000 0.3243
92.9167 0.3343
92.9333 0.3443
92.9500 0.3543
92.9667 0.3643
92.9833 0.2139
93.0000 0.2138
93.0167 0.2138
93.0333 0.2138
93.0500 0.2138
93.0667 0.2137
93.0833 0.2137
93.1000 0.2137
93.1167 0.2136
93.1333 0.2136
93.1500 0.2136
93.1667 0.2136
93.1833 0.2135
93.2000 0.2135
93.2167 0.2135
93.2333 0.2235
93.2500 0.2335
93.2667 0.2435
93.2833 0.2535
93.3000 0.2635
93.3167 0.2735
93.3333 0.2835
93.3500 0.2935
93.3667 0.3035
93.3833 0.3135
93.4000 0.3235
93.4167 0.3335
93.4333 0.3435
93.4500 0.3535
93.4667 0.3635
93.4833 0.2130
93.5000 0.2130
93.5167 0.2130
93.5333 0.2129
93.5500 0.2129
93.5667 0.2129
93.5833 0.2128
93.6000 0.2128
93.6167 0.2128
93.6333 0.2128
93.6500 0.2127
93.6667 0.2127
93.6833 0.2127
93.7000 0.2126
93.7167 0.2126
93.7333 0.2226
93.7500 0.2326
93.7667 0.2426
93.7833 0.2526
93.8000 0.2626
93.8167 0.2726
93.8333 0.2826
93.8500 0.2926
93.8667 0.3026
93.8833 0.3126
93.9000 0.3226
93.9167 0.3326
93.9333 0.3426
93.9500 0.3526
93.9667 0.3626
93.9833 0.2122
94.0000 0.2121
94.0167 0.2121
94.0333 0.2121
94.0500 0.2121
94.0667 0.2120
94.0833 0.2120
94.1000 0.2120
94.1167 0.2119
94.1333 0.2119
94.1500 0.2119
94.1667 0.2119
94.1833 0.2118
94.2000 0.2118
94.2167 0.2118
94.2333 0.2218
94.2500 0.2318
94.2667 0.2418
94.2833 0.2518
94.3000 0.2618
94.3167 0.2718
94.3333 0.2818
94.3500 0.2918
94.3667 0.3018
94.3833 0.3118
94.4000 0.3218
94.4167 0.3318
94.4333 0.3418
94.4500 0.3518
94.4667 0.3618
94.4833 0.2113
94.5000 0.2113
94.5167 0.2113
94.5333 0.2112
94.5500 0.2112
94.5667 0.2112
94.5833 0.2112
94.6000 0.2111
94.6167 0.2111
94.6333 0.2111
94.6500 0.2110
94.6667 0.2110
94.6833 0.2110
94.7000 0.2110
94.7167 0.2109
94.7333 0.2209
94.7500 0.2309
94.7667 0.2409
94.7833 0.2509
94.8000 0.2609
94.8167 0.2709
94.8333 0.2809
94.8500 0.2909
94.8667 0.3009
94.8833 0.3109
94.9000 0.3209
94.9167 0.3309
94.9333 0.3409
94.9500 0.3509
94.9667 0.3609
94.9833 0.2105
95.0000 0.2104
95.0167 0.2104
95.0333 0.2104
95.0500 0.2104
95.0667 0.2103
95.0833 0.2103
95.1000 0.2103
95.1167 0.2103
95.1333 0.2102
95.1500 0.2102
95.1667 0.2102
95.1833 0.2101
95.2000 0.2101
95.2167 0.2101
95.2333 0.2201
95.2500 0.2301
95.2667 0.2401
95.2833 0.2501
95.3000 0.2601
95.3167 0.2701
95.3333 0.2801
95.3500 0.2901
95.3667 0.3001
95.3833 0.3101
95.4000 0.3201
95.4167 0.3301
95.4333 0.3401
95.4500 0.3501
95.4667 0.3601
95.4833 0.2096
95.5000 0.2096
95.5167 0.2096
95.5333 0.2096
95.5500 0.2095
95.5667 0.2095
95.5833 0.2095
95.6000 0.2094
95.6167 0.2094
95.6333 0.2094
95.6500 0.2094
95.6667 0.2093
95.6833 0.2093
95.7000 0.2093
95.7167 0.2092
95.7333 0.2192
95.7500 0.2292
95.7667 0.2392
95.7833 0.2492
95.8000 0.2592
95.8167 0.2692
95.8333 0.2792
95.8500 0.2892
95.8667 0.2992
95.8833 0.3092
95.9000 0.3192
95.9167 0.3292
95.9333 0.3392
95.9500 0.3492
95.9667 0.3592
95.9833 0.2088
96.0000 0.2088
96.0167 0.2087
96.0333 0.2087
96.0500 0.2087
96.0667 0.2087
96.0833 0.2086
96.1000 0.2086
96.1167 0.2086
96.1333 0.2086
96.1500 0.2085
96.1667 0.2085
96.1833 0.2085
96.2000 0.2084
96.2167 0.2084
96.2333 0.2184
96.2500 0.2284
96.2667 0.2384
96.2833 0.2484
96.3000 0.2584
96.3167 0.2684
96.3333 0.2784
96.3500 0.2884
96.3667 0.2984
96.3833 0.3084
96.4000 0.3184
96.4167 0.3284
96.4333 0.3384
96.4500 0.3484
96.4667 0.3584
96.4833 0.2080
96.5000 0.2079
96.5167 0.2079
96.5333 0.2079
96.5500 0.2079
96.5667 0.2078
96.5833 0.2078
96.6000 0.2078
96.6167 0.2077
96.6333 0.2077
96.6500 0.2077
96.6667 0.2077
96.6833 0.2076
96.7000 0.2076
96.7167 0.2076
96.7333 0.2176
96.7500 0.2276
96.7667 0.2376
96.7833 0.2476
96.8000 0.2576
96.8167 0.2676
96.8333 0.2776
96.8500 0.2876
96.8667 0.2976
96.8833 0.3076
96.9000 0.3176
96.9167 0.3276
96.9333 0.3376
96.9500 0.3476
96.9667 0.3576
96.9833 0.2071
97.0000 0.2071
97.0167 0.2071
97.0333 0.2071
97.0500 0.2070
97.0667 0.2070
97.0833 0.2070
97.1000 0.2069
97.1167 0.2069
97.1333 0.2069
97.1500 0.2069
97.1667 0.2068
97.1833 0.2068
97.2000 0.2068
97.2167 0.2068
97.2333 0.2168
97.2500 0.2268
97.2667 0.2368
97.2833 0.2468
97.3000 0.2568
97.3167 0.2668
97.3333 0.2768
97.3500 0.2868
97.3667 0.2968
97.3833 0.3068
97.4000 0.3168
97.4167 0.3268
97.4333 0.3368
97.4500 0.3468
97.4667 0.3568
97.4833 0.2063
97.5000 0.2063
97.5167 0.2063
97.5333 0.2062
97.5500 0.2062
97.5667 0.2062
97.5833 0.2061
97.6000 0.2061
97.6167 0.2061
97.6333 0.2061
97.6500 0.2060
97.6667 0.2060
97.6833 0.2060
97.7000 0.2060
97.7167 0.2059
97.7333 0.2159
97.7500 0.2259
97.7667 0.2359
97.7833 0.2459
97.8000 0.2559
97.8167 0.2659
97.8333 0.2759
97.8500 0.2859
97.8667 0.2959
97.8833 0.3059
97.9000 0.3159
97.9167 0.3259
97.9333 0.3359
97.9500 0.3459
97.9667 0.3559
97.9833 0.2055
98.0000 0.2055
98.0167 0.2054
98.0333 0.2054
98.0500 0.2054
98.0667 0.2053
98.0833 0.2053
98.1000 0.2053
98.1167 0.2053
98.1333 0.2052
98.1500 0.2052
98.1667 0.2052
98.1833 0.2052
98.2000 0.2051
98.2167 0.2051
98.2333 0.2151
98.2500 0.2251
98.2667 0.2351
98.2833 0.2451
98.3000 0.2551
98.3167 0.2651
98.3333 0.2751
98.3500 0.2851
98.3667 0.2951
98.3833 0.3051
98.4000 0.3151
98.4167 0.3251
98.4333 0.3351
98.4500 0.3451
98.4667 0.3551
98.4833 0.2047
98.5000 0.2046
98.5167 0.2046
98.5333 0.2046
98.5500 0.2046
98.5667 0.2045
98.5833 0.2045
98.6000 0.2045
98.6167 0.2044
98.6333 0.2044
98.6500 0.2044
98.6667 0.2044
98.6833 0.2043
98.7000 0.2043
98.7167 0.2043
98.7333 0.2143
98.7500 0.2243
98.7667 0.2343
98.7833 0.2443
98.8000 0.2543
98.8167 0.2643
98.8333 0.2743
98.8500 0.2843
98.8667 0.2943
98.8833 0.3043
98.9000 0.3143
98.9167 0.3243
98.9333 0.3343
98.9500 0.3443
98.9667 0.3543
98.9833 0.2038
99.0000 0.2038
99.0167 0.2038
99.0333 0.2038
99.0500 0.2037
99.0667 0.2037
99.0833 0.2037
99.1000 0.2037
99.1167 0.2036
99.1333 0.2036
99.1500 0.2036
99.1667 0.2036
99.1833 0.2035
99.2000 0.2035
99.2167 0.2035
99.2333 0.2135
99.2500 0.2235
99.2667 0.2335
99.2833 0.2435
99.3000 0.2535
99.3167 0.2635
99.3333 0.2735
99.3500 0.2835
99.3667 0.2935
99.3833 0.3035
99.4000 0.3135
99.4167 0.3235
99.4333 0.3335
99.4500 0.3435
99.4667 0.3535
99.4833 0.2030
99.5000 0.2030
99.5167 0.2030
99.5333 0.2030
99.5500 0.2029
99.5667 0.2029
99.5833 0.2029
99.6000 0.2028
99.6167 0.2028
99.6333 0.2028
99.6500 0.2028
99.6667 0.2027
99.6833 0.2027
99.7000 0.2027
99.7167 0.2027
99.7333 0.2127
99.7500 0.2227
99.7667 0.2327
99.7833 0.2427
99.8000 0.2527
99.8167 0.2627
99.8333 0.2727
99.8500 0.2827
99.8667 0.2927
99.8833 0.3027
99.9000 0.3127
99.9167 0.3227
99.9333 0.3327
99.9500 0.3427
99.9667 0.3527
99.9833 0.2022
100.0000 0.2022
100.0167 0.2022
100.0333 0.2021
100.0500 0.2021
100.0667 0.2021
100.0833 0.2021
100.1000 0.2020
100.1167 0.2020
100.1333 0.2020
100.1500 0.2020
100.1667 0.2019
100.1833 0.2019
100.2000 0.2019
100.2167 0.2018
100.2333 0.2018
100.2500 0.2018
100.2667 0.2018
100.2833 0.2017
100.3000 0.2017
100.3167 0.2017
100.3333 0.2017
100.3500 0.2016
100.3667 0.2016
100.3833 0.2016
100.4000 0.2016
100.4167 0.2015
100.4333 0.2015
100.4500 0.2015
100.4667 0.2014
100.4833 0.2014
100.5000 0.2014
100.5167 0.2014
100.5333 0.2013
100.5500 0.2013
100.5667 0.2013
100.5833 0.2013
100.6000 0.2012
100.6167 0.2012
100.6333 0.2012
100.6500 0.2011
100.6667 0.2011
100.6833 0.2011
100.7000 0.2011
100.7167 0.2010
100.7333 0.2010
100.7500 0.2010
100.7667 0.2010
100.7833 0.2009
100.8000 0.2009
100.8167 0.2009
100.8333 0.2009
100.8500 0.2008
100.8667 0.2008
100.8833 0.2008
100.9000 0.2007
100.9167 0.2007
100.9333 0.2007
100.9500 0.2007
100.9667 0.2006
100.9833 0.2006
101.0000 0.2006
101.0167 0.2006
101.0333 0.2005
101.0500 0.2005
101.0667 0.2005
101.0833 0.2005
101.1000 0.2004
101.1167 0.2004
101.1333 0.2004
101.1500 0.2003
101.1667 0.2003
101.1833 0.2003
101.2000 0.2003
101.2167 0.2002
101.2333 0.2002
101.2500 0.2002
101.2667 0.2002
101.2833 0.2001
101.3000 0.2001
101.3167 0.2001
101.3333 0.2001
101.3500 0.2000
101.3667 0.2000
101.3833 0.2000
101.4000 0.1999
101.4167 0.1999
101.4333 0.1999
101.4500 0.1999
101.4667 0.1998
101.4833 0.1998
101.5000 0.1998
101.5167 0.1998
101.5333 0.1997
101.5500 0.1997
101.5667 0.1997
101.5833 0.1997
101.6000 0.1996
101.6167 0.1996
101.6333 0.1996
101.6500 0.1995
101.6667 0.1995
101.6833 0.1995
101.7000 0.1995
101.7167 0.1994
101.7333 0.1994
101.7500 0.1994
101.7667 0.1994
101.7833 0.1993
101.8000 0.1993
101.8167 0.1993
101.8333 0.1993
101.8500 0.1992
101.8667 0.1992
101.8833 0.1992
101.9000 0.1991
101.9167 0.1991
101.9333 0.1991
101.9500 0.1991
101.9667 0.1990
101.9833 0.1990
102.0000 0.1990
102.0167 0.1990
102.0333 0.1989
102.0500 0.1989
102.0667 0.1989
102.0833 0.1989
102.1000 0.1988
102.1167 0.1988
102.1333 0.1988
102.1500 0.1987
102.1667 0.1987
102.1833 0.1987
102.2000 0.1987
102.2167 0.1986
102.2333 0.1986
102.2500 0.1986
102.2667 0.1986
102.2833 0.1985
102.3000 0.1985
102.3167 0.1985
102.3333 0.1985
102.3500 0.1984
102.3667 0.1984
102.3833 0.1984
102.4000 0.1984
102.4167 0.1983
102.4333 0.1983
102.4500 0.1983
102.4667 0.1982
102.4833 0.1982
102.5000 0.1982
102.5167 0.1982
102.5333 0.1981
102.5500 0.1981
102.5667 0.1981
102.5833 0.1981
102.6000 0.1980
102.6167 0.1980
102.6333 0.1980
102.6500 0.1980
102.6667 0.1979
102.6833 0.1979
102.7000 0.1979
102.7167 0.1979
102.7333 0.1978
102.7500 0.1978
102.7667 0.1978
102.7833 0.1977
102.8000 0.1977
102.8167 0.1977
102.8333 0.1977
102.8500 0.1976
102.8667 0.1976
102.8833 0.1976
102.9000 0.1976
102.9167 0.1975
102.9333 0.1975
102.9500 0.1975
102.9667 0.1975
102.9833 0.1974
103.0000 0.1974
103.0167 0.1974
103.0333 0.1974
103.0500 0.1973
103.0667 0.1973
103.0833 0.1973
103.1000 0.1972
103.1167 0.1972
103.1333 0.1972
103.1500 0.1972
103.1667 0.1971
103.1833 0.1971
103.2000 0.1971
103.2167 0.1971
103.2333 0.1970
103.2500 0.1970
103.2667 0.1970
103.2833 0.1970
103.3000 0.1969
103.3167 0.1969
103.3333 0.1969
103.3500 0.1969
103.3667 0.1968
103.3833 0.1968
103.4000 0.1968
103.4167 0.1967
103.4333 0.1967
103.4500 0.1967
103.4667 0.1967
103.4833 0.1966
103.5000 0.1966
103.5167 0.1966
103.5333 0.1966
103.5500 0.1965
103.5667 0.1965
103.5833 0.1965
103.6000 0.1965
103.6167 0.1964
103.6333 0.1964
103.6500 0.1964
103.6667 0.1964
103.6833 0.1963
103.7000 0.1963
103.7167 0.1963
103.7333 0.1962
103.7500 0.1962
103.7667 0.1962
103.7833 0.1962
103.8000 0.1961
103.8167 0.1961
103.8333 0.1961
103.8500 0.1961
103.8667 0.1960
103.8833 0.1960
103.9000 0.1960
103.9167 0.1960
103.9333 0.1959
103.9500 0.1959
103.9667 0.1959
103.9833 0.1959
104.0000 0.1958
104.0167 0.1958
104.0333 0.1958
104.0500 0.1958
104.0667 0.1957
104.0833 0.1957
104.1000 0.1957
104.1167 0.1956
104.1333 0.1956
104.1500 0.1956
104.1667 0.1956
104.1833 0.1955
104.2000 0.1955
104.2167 0.1955
104.2333 0.1955
104.2500 0.1954
104.2667 0.1954
104.2833 0.1954
104.3000 0.1954
104.3167 0.1953
104.3333 0.1953
104.3500 0.1953
104.3667 0.1953
104.3833 0.1952
104.4000 0.1952
104.4167 0.1952
104.4333 0.1952
104.4500 0.1951
104.4667 0.1951
104.4833 0.1951
104.5000 0.1950
104.5167 0.1950
104.5333 0.1950
104.5500 0.1950
104.5667 0.1949
104.5833 0.1949
104.6000 0.1949
104.6167 0.1949
104.6333 0.1948
104.6500 0.1948
104.6667 0.1948
104.6833 0.1948
104.7000 0.1947
104.7167 0.1947
104.7333 0.1947
104.7500 0.1947
104.7667 0.1946
104.7833 0.1946
104.8000 0.1946
104.8167 0.1946
104.8333 0.1945
104.8500 0.1945
104.8667 0.1945
104.8833 0.1945
104.9000 0.1944
104.9167 0.1944
104.9333 0.1944
104.9500 0.1943
104.9667 0.1943
104.9833 0.1943
105.0000 0.1943
105.0167 0.1942
105.0333 0.1942
105.0500 0.1942
105.0667 0.1942
105.0833 0.1941
105.1000 0.1941
105.1167 0.1941
105.1333 0.1941
105.1500 0.1940
105.1667 0.1940
105.1833 0.1940
105.2000 0.1940
105.2167 0.1939
105.2333 0.1939
105.2500 0.1939
105.2667 0.1939
105.2833 0.1938
105.3000 0.1938
105.3167 0.1938
105.3333 0.1938
105.3500 0.1937
105.3667 0.1937
105.3833 0.1937
105.4000 0.1936
105.4167 0.1936
105.4333 0.1936
105.4500 0.1936
105.4667 0.1935
105.4833 0.1935
105.5000 0.1935
105.5167 0.1935
105.5333 0.1934
105.5500 0.1934
105.5667 0.1934
105.5833 0.1934
105.6000 0.1933
105.6167 0.1933
105.6333 0.1933
105.6500 0.1933
105.6667 0.1932
105.6833 0.1932
105.7000 0.1932
105.7167 0.1932
105.7333 0.1931
105.7500 0.1931
105.7667 0.1931
105.7833 0.1931
105.8000 0.1930
105.8167 0.1930
105.8333 0.1930
105.8500 0.1930
105.8667 0.1929
105.8833 0.1929
105.9000 0.1929
105.9167 0.1929
105.9333 0.1928
105.9500 0.1928
105.9667 0.1928
105.9833 0.1927
106.0000 0.1927
106.0167 0.1927
106.0333 0.1927
106.0500 0.1926
106.0667 0.1926
106.0833 0.1926
106.1000 0.1926
106.1167 0.1925
106.1333 0.1925
106.1500 0.1925
106.1667 0.1925
106.1833 0.1924
106.2000 0.1924
106.2167 0.1924
106.2333 0.1924
106.2500 0.1923
106.2667 0.1923
106.2833 0.1923
106.3000 0.1923
106.3167 0.1922
106.3333 0.1922
106.3500 0.1922
106.3667 0.1922
106.3833 0.1921
106.4000 0.1921
106.4167 0.1921
106.4333 0.1921
106.4500 0.1920
106.4667 0.1920
106.4833 0.1920
106.5000 0.1920
106.5167 0.1919
106.5333 0.1919
106.5500 0.1919
106.5667 0.1919
106.5833 0.1918
106.6000 0.1918
106.6167 0.1918
106.6333 0.1917
106.6500 0.1917
106.6667 0.1917
106.6833 0.1917
106.7000 0.1916
106.7167 0.1916
106.7333 0.1916
106.7500 0.1916
106.7667 0.1915
106.7833 0.1915
106.8000 0.1915
106.8167 0.1915
106.8333 0.1914
106.8500 0.1914
106.8667 0.1914
106.8833 0.1914
106.9000 0.1913
106.9167 0.1913
106.9333 0.1913
106.9500 0.1913
106.9667 0.1912
106.9833 0.1912
107.0000 0.1912
107.0167 0.1912
107.0333 0.1911
107.0500 0.1911
107.0667 0.1911
107.0833 0.1911
107.1000 0.1910
107.1167 0.1910
107.1333 0.1910
107.1500 0.1910
107.1667 0.1909
107.1833 0.1909
107.2000 0.1909
107.2167 0.1909
107.2333 0.1908
107.2500 0.1908
107.2667 0.1908
107.2833 0.1908
107.3000 0.1907
107.3167 0.1907
107.3333 0.1907
107.3500 0.1907
107.3667 0.1906
107.3833 0.1906
107.4000 0.1906
107.4167 0.1905
107.4333 0.1905
107.4500 0.1905
107.4667 0.1905
107.4833 0.1904
107.5000 0.1904
107.5167 0.1904
107.5333 0.1904
107.5500 0.1903
107.5667 0.1903
107.5833 0.1903
107.6000 0.1903
107.6167 0.1902
107.6333 0.1902
107.6500 0.1902
107.6667 0.1902
107.6833 0.1901
107.7000 0.1901
107.7167 0.1901
107.7333 0.1901
107.7500 0.1900
107.7667 0.1900
107.7833 0.1900
107.8000 0.1900
107.8167 0.1899
107.8333 0.1899
107.8500 0.1899
107.8667 0.1899
107.8833 0.1898
107.9000 0.1898
107.9167 0.1898
107.9333 0.1898
107.9500 0.1897
107.9667 0.1897
107.9833 0.1897
108.0000 0.1897
108.0167 0.1896
108.0333 0.1896
108.0500 0.1896
108.0667 0.1896
108.0833 0.1895
108.1000 0.1895
108.1167 0.1895
108.1333 0.1895
108.1500 0.1894
108.1667 0.1894
108.1833 0.1894
108.2000 0.1894
108.2167 0.1893
108.2333 0.1893
108.2500 0.1893
108.2667 0.1893
108.2833 0.1892
108.3000 0.1892
108.3167 0.1892
108.3333 0.1892
108.3500 0.1891
108.3667 0.1891
108.3833 0.1891
108.4000 0.1891
108.4167 0.1890
108.4333 0.1890
108.4500 0.1890
108.4667 0.1890
108.4833 0.1889
108.5000 0.1889
108.5167 0.1889
108.5333 0.1889
108.5500 0.1888
108.5667 0.1888
108.5833 0.1888
108.6000 0.1888
108.6167 0.1887
108.6333 0.1887
108.6500 0.1887
108.6667 0.1887
108.6833 0.1886
108.7000 0.1886
108.7167 0.1886
108.7333 0.1886
108.7500 0.1885
108.7667 0.1885
108.7833 0.1885
108.8000 0.1885
108.8167 0.1884
108.8333 0.1884
108.8500 0.1884
108.8667 0.1884
108.8833 0.1883
108.9000 0.1883
108.9167 0.1883
108.9333 0.1883
108.9500 0.1882
108.9667 0.1882
108.9833 0.1882
109.0000 0.1882
109.0167 0.1881
109.0333 0.1881
109.0500 0.1881
109.0667 0.1881
109.0833 0.1880
109.1000 0.1880
109.1167 0.1880
109.1333 0.1880
109.1500 0.1879
109.1667 0.1879
109.1833 0.1879
109.2000 0.1879
109.2167 0.1878
109.2333 0.1878
109.2500 0.1878
109.2667 0.1878
109.2833 0.1877
109.3000 0.1877
109.3167 0.1877
109.3333 0.1877
109.3500 0.1876
109.3667 0.1876
109.3833 0.1876
109.4000 0.1876
109.4167 0.1875
109.4333 0.1875
109.4500 0.1875
109.4667 0.1875
109.4833 0.1874
109.5000 0.1874
109.5167 0.1874
109.5333 0.1874
109.5500 0.1873
109.5667 0.1873
109.5833 0.1873
109.6000 0.1873
109.6167 0.1872
109.6333 0.1872
109.6500 0.1872
109.6667 0.1872
109.6833 0.1871
109.7000 0.1871
109.7167 0.1871
109.7333 0.1871
109.7500 0.1870
109.7667 0.1870
109.7833 0.1870
109.8000 0.1870
109.8167 0.1869
109.8333 0.1869
109.8500 0.1869
109.8667 0.1869
109.8833 0.1868
109.9000 0.1868
109.9167 0.1868
109.9333 0.1868
109.9500 0.1867
109.9667 0.1867
109.9833 0.1867
110.0000 0.1867
110.0167 0.1866
110.0333 0.1866
110.0500 0.1866
110.0667 0.1866
110.0833 0.1865
110.1000 0.1865
110.1167 0.1865
110.1333 0.1865
110.1500 0.1864
110.1667 0.1864
110.1833 0.1864
110.2000 0.1864
110.2167 0.1863
110.2333 0.1863
110.2500 0.1863
110.2667 0.1863
110.2833 0.1862
110.3000 0.1862
110.3167 0.1862
110.3333 0.1862
110.3500 0.1861
110.3667 0.1861
110.3833 0.1861
110.4000 0.1861
110.4167 0.1860
110.4333 0.1860
110.4500 0.1860
110.4667 0.1860
110.4833 0.1859
110.5000 0.1859
110.5167 0.1859
110.5333 0.1859
110.5500 0.1858
110.5667 0.1858
110.5833 0.1858
110.6000 0.1858
110.6167 0.1857
110.6333 0.1857
110.6500 0.1857
110.6667 0.1857
110.6833 0.1856
110.7000 0.1856
110.7167 0.1856
110.7333 0.1856
110.7500 0.1855
110.7667 0.1855
110.7833 0.1855
110.8000 0.1855
110.8167 0.1854
110.8333 0.1854
110.8500 0.1854
110.8667 0.1854
110.8833 0.1853
110.9000 0.1853
110.9167 0.1853
110.9333 0.1853
110.9500 0.1852
110.9667 0.1852
110.9833 0.1852
111.0000 0.1852
111.0167 0.1851
111.0333 0.1851
111.0500 0.1851
111.0667 0.1851
111.0833 0.1850
111.1000 0.1850
111.1167 0.1850
111.1333 0.1850
111.1500 0.1849
111.1667 0.1849
111.1833 0.1849
111.2000 0.1849
111.2167 0.1848
111.2333 0.1848
111.2500 0.1848
111.2667 0.1848
111.2833 0.1847
111.3000 0.1847
111.3167 0.1847
111.3333 0.1847
111.3500 0.1846
111.3667 0.1846
111.3833 0.1846
111.4000 0.1846
111.4167 0.1845
111.4333 0.1845
111.4500 0.1845
111.4667 0.1845
111.4833 0.1845
111.5000 0.1844
111.5167 0.1844
111.5333 0.1844
111.5500 0.1844
111.5667 0.1843
111.5833 0.1843
111.6000 0.1843
111.6167 0.1843
111.6333 0.1842
111.6500 0.1842
111.6667 0.1842
111.6833 0.1842
111.7000 0.1841
111.7167 0.1841
111.7333 0.1841
111.7500 0.1841
111.7667 0.1840
111.7833 0.1840
111.8000 0.1840
111.8167 0.1840
111.8333 0.1839
111.8500 0.1839
111.8667 0.1839
111.8833 0.1839
111.9000 0.1838
111.9167 0.1838
111.9333 0.1838
111.9500 0.1838
111.9667 0.1837
111.9833 0.1837
112.0000 0.1837
112.0167 0.1837
112.0333 0.1836
112.0500 0.1836
112.0667 0.1836
112.0833 0.1836
112.1000 0.1835
112.1167 0.1835
112.1333 0.1835
112.1500 0.1835
112.1667 0.1834
112.1833 0.1834
112.2000 0.1834
112.2167 0.1834
112.2333 0.1833
112.2500 0.1833
112.2667 0.1833
112.2833 0.1833
112.3000 0.1832
112.3167 0.1832
112.3333 0.1832
112.3500 0.1832
112.3667 0.1832
112.3833 0.1831
112.4000 0.1831
112.4167 0.1831
112.4333 0.1831
112.4500 0.1830
112.4667 0.1830
112.4833 0.1830
112.5000 0.1830
112.5167 0.1829
112.5333 0.1829
112.5500 0.1829
112.5667 0.1829
112.5833 0.1828
112.6000 0.1828
112.6167 0.1828
112.6333 0.1828
112.6500 0.1827
112.6667 0.1827
112.6833 0.1827
112.7000 0.1827
112.7167 0.1826
112.7333 0.1826
112.7500 0.1826
112.7667 0.1826
112.7833 0.1825
112.8000 0.1825
112.8167 0.1825
112.8333 0.1825
112.8500 0.1824
112.8667 0.1824
112.8833 0.1824
112.9000 0.1824
112.9167 0.1823
112.9333 0.1823
112.9500 0.1823
112.9667 0.1823
112.9833 0.1823
113.0000 0.1822
113.0167 0.1822
113.0333 0.1822
113.0500 0.1822
113.0667 0.1821
113.0833 0.1821
113.1000 0.1821
113.1167 0.1821
113.1333 0.1820
113.1500 0.1820
113.1667 0.1820
113.1833 0.1820
113.2000 0.1819
113.2167 0.1819
113.2333 0.1819
113.2500 0.1819
113.2667 0.1818
113.2833 0.1818
113.3000 0.1818
113.3167 0.1818
113.3333 0.1817
113.3500 0.1817
113.3667 0.1817
113.3833 0.1817
113.4000 0.1816
113.4167 0.1816
113.4333 0.1816
113.4500 0.1816
113.4667 0.1815
113.4833 0.1815
113.5000 0.1815
113.5167 0.1815
113.5333 0.1815
113.5500 0.1814
113.5667 0.1814
113.5833 0.1814
113.6000 0.1814
113.6167 0.1813
113.6333 0.1813
113.6500 0.1813
113.6667 0.1813
113.6833 0.1812
113.7000 0.1812
113.7167 0.1812
113.7333 0.1812
113.7500 0.1811
113.7667 0.1811
113.7833 0.1811
113.8000 0.1811
113.8167 0.1810
113.8333 0.1810
113.8500 0.1810
113.8667 0.1810
113.8833 0.1809
113.9000 0.1809
113.9167 0.1809
113.9333 0.1809
113.9500 0.1808
113.9667 0.1808
113.9833 0.1808
114.0000 0.1808
114.0167 0.1807
114.0333 0.1807
114.0500 0.1807
114.0667 0.1807
114.0833 0.1807
114.1000 0.1806
114.1167 0.1806
114.1333 0.1806
114.1500 0.1806
114.1667 0.1805
114.1833 0.1805
114.2000 0.1805
114.2167 0.1805
114.2333 0.1804
114.2500 0.1804
114.2667 0.1804
114.2833 0.1804
114.3000 0.1803
114.3167 0.1803
114.3333 0.1803
114.3500 0.1803
114.3667 0.1802
114.3833 0.1802
114.4000 0.1802
114.4167 0.1802
114.4333 0.1801
114.4500 0.1801
114.4667 0.1801
114.4833 0.1801
114.5000 0.1801
114.5167 0.1800
114.5333 0.1800
114.5500 0.1800
114.5667 0.1800
114.5833 0.1799
114.6000 0.1799
114.6167 0.1799
114.6333 0.1799
114.6500 0.1798
114.6667 0.1798
114.6833 0.1798
114.7000 0.1798
114.7167 0.1797
114.7333 0.1797
114.7500 0.1797
114.7667 0.1797
114.7833 0.1796
114.8000 0.1796
114.8167 0.1796
114.8333 0.1796
114.8500 0.1795
114.8667 0.1795
114.8833 0.1795
114.9000 0.1795
114.9167 0.1795
114.9333 0.1794
114.9500 0.1794
114.9667 0.1794
114.9833 0.1794
115.0000 0.1793
115.0167 0.1793
115.0333 0.1793
115.0500 0.1793
115.0667 0.1792
115.0833 0.1792
115.1000 0.1792
115.1167 0.1792
115.1333 0.1791
115.1500 0.1791
115.1667 0.1791
115.1833 0.1791
115.2000 0.1790
115.2167 0.1790
115.2333 0.1790
115.2500 0.1790
115.2667 0.1790
115.2833 0.1789
115.3000 0.1789
115.3167 0.1789
115.3333 0.1789
115.3500 0.1788
115.3667 0.1788
115.3833 0.1788
115.4000 0.1788
115.4167 0.1787
115.4333 0.1787
115.4500 0.1787
115.4667 0.1787
115.4833 0.1786
115.5000 0.1786
115.5167 0.1786
115.5333 0.1786
115.5500 0.1785
115.5667 0.1785
115.5833 0.1785
115.6000 0.1785
115.6167 0.1785
115.6333 0.1784
115.6500 0.1784
115.6667 0.1784
115.6833 0.1784
115.7000 0.1783
115.7167 0.1783
115.7333 0.1783
115.7500 0.1783
115.7667 0.1782
115.7833 0.1782
115.8000 0.1782
115.8167 0.1782
115.8333 0.1781
115.8500 0.1781
115.8667 0.1781
115.8833 0.1781
115.9000 0.1780
115.9167 0.1780
115.9333 0.1780
115.9500 0.1780
115.9667 0.1780
115.9833 0.1779
116.0000 0.1779
116.0167 0.1779
116.0333 0.1779
116.0500 0.1778
116.0667 0.1778
116.0833 0.1778
116.1000 0.1778
116.1167 0.1777
116.1333 0.1777
116.1500 0.1777
116.1667 0.1777
116.1833 0.1776
116.2000 0.1776
116.2167 0.1776
116.2333 0.1776
116.2500 0.1775
116.2667 0.1775
116.2833 0.1775
116.3000 0.1775
116.3167 0.1775
116.3333 0.1774
116.3500 0.1774
116.3667 0.1774
116.3833 0.1774
116.4000 0.1773
116.4167 0.1773
116.4333 0.1773
116.4500 0.1773
116.4667 0.1772
116.4833 0.1772
116.5000 0.1772
116.5167 0.1772
116.5333 0.1771
116.5500 0.1771
116.5667 0.1771
116.5833 0.1771
116.6000 0.1771
116.6167 0.1770
116.6333 0.1770
116.6500 0.1770
116.6667 0.1770
116.6833 0.1769
116.7000 0.1769
116.7167 0.1769
116.7333 0.1769
116.7500 0.1768
116.7667 0.1768
116.7833 0.1768
116.8000 0.1768
116.8167 0.1767
116.8333 0.1767
116.8500 0.1767
116.8667 0.1767
116.8833 0.1767
116.9000 0.1766
116.9167 0.1766
116.9333 0.1766
116.9500 0.1766
116.9667 0.1765
116.9833 0.1765
117.0000 0.1765
117.0167 0.1765
117.0333 0.1764
117.0500 0.1764
117.0667 0.1764
117.0833 0.1764
117.1000 0.1763
117.1167 0.1763
117.1333 0.1763
117.1500 0.1763
117.1667 0.1763
117.1833 0.1762
117.2000 0.1762
117.2167 0.1762
117.2333 0.1762
117.2500 0.1761
117.2667 0.1761
117.2833 0.1761
117.3000 0.1761
117.3167 0.1760
117.3333 0.1760
117.3500 0.1760
117.3667 0.1760
117.3833 0.1759
117.4000 0.1759
117.4167 0.1759
117.4333 0.1759
117.4500 0.1759
117.4667 0.1758
117.4833 0.1758
117.5000 0.1758
117.5167 0.1758
117.5333 0.1757
117.5500 0.1757
117.5667 0.1757
117.5833 0.1757
117.6000 0.1756
117.6167 0.1756
117.6333 0.1756
117.6500 0.1756
117.6667 0.1755
117.6833 0.1755
117.7000 0.1755
117.7167 0.1755
117.7333 0.1755
117.7500 0.1754
117.7667 0.1754
117.7833 0.1754
117.8000 0.1754
117.8167 0.1753
117.8333 0.1753
117.8500 0.1753
117.8667 0.1753
117.8833 0.1752
117.9000 0.1752
117.9167 0.1752
117.9333 0.1752
117.9500 0.1752
117.9667 0.1751
117.9833 0.1751
118.0000 0.1751
118.0167 0.1751
118.0333 0.1750
118.0500 0.1750
118.0667 0.1750
118.0833 0.1750
118.1000 0.1749
118.1167 0.1749
118.1333 0.1749
118.1500 0.1749
118.1667 0.1748
118.1833 0.1748
118.2000 0.1748
118.2167 0.1748
118.2333 0.1748
118.2500 0.1747
118.2667 0.1747
118.2833 0.1747
118.3000 0.1747
118.3167 0.1746
118.3333 0.1746
118.3500 0.1746
118.3667 0.1746
118.3833 0.1745
118.4000 0.1745
118.4167 0.1745
118.4333 0.1745
118.4500 0.1745
118.4667 0.1744
118.4833 0.1744
118.5000 0.1744
118.5167 0.1744
118.5333 0.1743
118.5500 0.1743
118.5667 0.1743
118.5833 0.1743
118.6000 0.1742
118.6167 0.1742
118.6333 0.1742
118.6500 0.1742
118.6667 0.1741
118.6833 0.1741
118.7000 0.1741
118.7167 0.1741
118.7333 0.1741
118.7500 0.1740
118.7667 0.1740
118.7833 0.1740
118.8000 0.1740
118.8167 0.1739
118.8333 0.1739
118.8500 0.1739
118.8667 0.1739
118.8833 0.1738
118.9000 0.1738
118.9167 0.1738
118.9333 0.1738
118.9500 0.1738
118.9667 0.1737
118.9833 0.1737
119.0000 0.1737
119.0167 0.1737
119.0333 0.1736
119.0500 0.1736
119.0667 0.1736
119.0833 0.1736
119.1000 0.1735
119.1167 0.1735
119.1333 0.1735
119.1500 0.1735
119.1667 0.1735
119.1833 0.1734
119.2000 0.1734
119.2167 0.1734
119.2333 0.1734
119.2500 0.1733
119.2667 0.1733
119.2833 0.1733
119.3000 0.1733
119.3167 0.1732
119.3333 0.1732
119.3500 0.1732
119.3667 0.1732
119.3833 0.1732
119.4000 0.1731
119.4167 0.1731
119.4333 0.1731
119.4500 0.1731
119.4667 0.1730
119.4833 0.1730
119.5000 0.1730
119.5167 0.1730
119.5333 0.1729
119.5500 0.1729
119.5667 0.1729
119.5833 0.1729
119.6000 0.1729
119.6167 0.1728
119.6333 0.1728
119.6500 0.1728
119.6667 0.1728
119.6833 0.1727
119.7000 0.1727
119.7167 0.1727
119.7333 0.1727
119.7500 0.1726
119.7667 0.1726
119.7833 0.1726
119.8000 0.1726
119.8167 0.1726
119.8333 0.1725
119.8500 0.1725
119.8667 0.1725
119.8833 0.1725
119.9000 0.1724
119.9167 0.1724
119.9333 0.1724
119.9500 0.1724
119.9667 0.1723
119.9833 0.1723
120.0000 0.1723
