time [s] Activity [arb units]
0.0000 0.0000
0.0167 0.3172
0.0333 0.6011
0.0500 0.8545
0.0667 1.0802
0.0833 1.2806
0.1000 1.4580
0.1167 1.6146
0.1333 1.7521
0.1500 1.8724
0.1667 1.9771
0.1833 2.0677
0.2000 2.1454
0.2167 2.2115
0.2333 2.2672
0.2500 2.3135
0.2667 2.3513
0.2833 2.3815
0.3000 2.4048
0.3167 2.4220
0.3333 2.4338
0.3500 2.4406
0.3667 2.4432
0.3833 2.4418
0.4000 2.4371
0.4167 2.4294
0.4333 2.4190
0.4500 2.4064
0.4667 2.3918
0.4833 2.3754
0.5000 2.3576
0.5167 2.3384
0.5333 2.3183
0.5500 2.2972
0.5667 2.2755
0.5833 2.2532
0.6000 2.2304
0.6167 2.2073
0.6333 2.1839
0.6500 2.1604
0.6667 2.1369
0.6833 2.1134
0.7000 2.0899
0.7167 2.0666
0.7333 2.0434
0.7500 2.0205
0.7667 1.9978
0.7833 1.9754
0.8000 1.9533
0.8167 1.9315
0.8333 1.9101
0.8500 1.8891
0.8667 1.8684
0.8833 1.8480
0.9000 1.8281
0.9167 1.8086
0.9333 1.7894
0.9500 1.7707
0.9667 1.7523
0.9833 1.7343
1.0000 1.7167
1.0167 1.6995
1.0333 1.6827
1.0500 1.6662
1.0667 1.6501
1.0833 1.6344
1.1000 1.6190
1.1167 1.6040
1.1333 1.5892
1.1500 1.5748
1.1667 1.5608
1.1833 1.5470
1.2000 1.5336
1.2167 1.5204
1.2333 1.5075
1.2500 1.4949
1.2667 1.4826
1.2833 1.4705
1.3000 1.4587
1.3167 1.4471
1.3333 1.4358
1.3500 1.4247
1.3667 1.4138
1.3833 1.4031
1.4000 1.3926
1.4167 1.3824
1.4333 1.3723
1.4500 1.3625
1.4667 1.3528
1.4833 1.3433
1.5000 1.3339
1.5167 1.3248
1.5333 1.3158
1.5500 1.3069
1.5667 1.2982
1.5833 1.2896
1.6000 1.2812
1.6167 1.2730
1.6333 1.2648
1.6500 1.2568
1.6667 1.2489
1.6833 1.2411
1.7000 1.2335
1.7167 1.2259
1.7333 1.2185
1.7500 1.2112
1.7667 1.2040
1.7833 1.1969
1.8000 1.1898
1.8167 1.1829
1.8333 1.1761
1.8500 1.1693
1.8667 1.1627
1.8833 1.1561
1.9000 1.1496
1.9167 1.1432
1.9333 1.1369
1.9500 1.1306
1.9667 1.1245
1.9833 1.1184
2.0000 1.1123
2.0167 1.1064
2.0333 1.1005
2.0500 1.0947
2.0667 1.0889
2.0833 1.0832
2.1000 1.0776
2.1167 1.0720
2.1333 1.0665
2.1500 1.0610
2.1667 1.0556
2.1833 1.0502
2.2000 1.0450
2.2167 1.0397
2.2333 1.0345
2.2500 1.0294
2.2667 1.0243
2.2833 1.0193
2.3000 1.0143
2.3167 1.0094
2.3333 1.0045
2.3500 0.9996
2.3667 0.9948
2.3833 0.9901
2.4000 0.9854
2.4167 0.9807
2.4333 0.9761
2.4500 0.9715
2.4667 0.9670
2.4833 0.9625
2.5000 0.9581
2.5167 0.9536
2.5333 0.9493
2.5500 0.9449
2.5667 0.9406
2.5833 0.9364
2.6000 0.9322
2.6167 0.9280
2.6333 0.9238
2.6500 0.9197
2.6667 0.9157
2.6833 0.9116
2.7000 0.9076
2.7167 0.9037
2.7333 0.8997
2.7500 0.8958
2.7667 0.8920
2.7833 0.8881
2.8000 0.8843
2.8167 0.8806
2.8333 0.8768
2.8500 0.8731
2.8667 0.8695
2.8833 0.8658
2.9000 0.8622
2.9167 0.8586
2.9333 0.8551
2.9500 0.8516
2.9667 0.8481
2.9833 0.8446
3.0000 0.8412
3.0167 0.8378
3.0333 0.8344
3.0500 0.8310
3.0667 0.8277
3.0833 0.8244
3.1000 0.8212
3.1167 0.8179
3.1333 0.8147
3.1500 0.8115
3.1667 0.8084
3.1833 0.8052
3.2000 0.8021
3.2167 0.7991
3.2333 0.7960
3.2500 0.7930
3.2667 0.7900
3.2833 0.7870
3.3000 0.7840
3.3167 0.7811
3.3333 0.7782
3.3500 0.7753
3.3667 0.7725
3.3833 0.7696
3.4000 0.7668
3.4167 0.7640
3.4333 0.7612
3.4500 0.7585
3.4667 0.7558
3.4833 0.7531
3.5000 0.7504
3.5167 0.7477
3.5333 0.7451
3.5500 0.7425
3.5667 0.7399
3.5833 0.7373
3.6000 0.7348
3.6167 0.7323
3.6333 0.7297
3.6500 0.7273
3.6667 0.7248
3.6833 0.7223
3.7000 0.7199
3.7167 0.7175
3.7333 0.7151
3.7500 0.7128
3.7667 0.7104
3.7833 0.7081
3.8000 0.7058
3.8167 0.7035
3.8333 0.7012
3.8500 0.6989
3.8667 0.6967
3.8833 0.6945
3.9000 0.6923
3.9167 0.6901
3.9333 0.6879
3.9500 0.6858
3.9667 0.6836
3.9833 0.6815
4.0000 0.6794
4.0167 0.6774
4.0333 0.6753
4.0500 0.6732
4.0667 0.6712
4.0833 0.6692
4.1000 0.6672
4.1167 0.6652
4.1333 0.6633
4.1500 0.6613
4.1667 0.6594
4.1833 0.6575
4.2000 0.6556
4.2167 0.6537
4.2333 0.6518
4.2500 0.6499
4.2667 0.6481
4.2833 0.6463
4.3000 0.6445
4.3167 0.6427
4.3333 0.6409
4.3500 0.6391
4.3667 0.6374
4.3833 0.6356
4.4000 0.6339
4.4167 0.6322
4.4333 0.6305
4.4500 0.6288
4.4667 0.6271
4.4833 0.6255
4.5000 0.6238
4.5167 0.6222
4.5333 0.6206
4.5500 0.6189
4.5667 0.6174
4.5833 0.6158
4.6000 0.6142
4.6167 0.6127
4.6333 0.6111
4.6500 0.6096
4.6667 0.6081
4.6833 0.6066
4.7000 0.6051
4.7167 0.6036
4.7333 0.6021
4.7500 0.6006
4.7667 0.5992
4.7833 0.5978
4.8000 0.5963
4.8167 0.5949
4.8333 0.5935
4.8500 0.5921
4.8667 0.5908
4.8833 0.5894
4.9000 0.5880
4.9167 0.5867
4.9333 0.5853
4.9500 0.5840
4.9667 0.5827
4.9833 0.5814
5.0000 0.5801
5.0167 0.5788
5.0333 0.5776
5.0500 0.5763
5.0667 0.5750
5.0833 0.5738
5.1000 0.5726
5.1167 0.5713
5.1333 0.5701
5.1500 0.5689
5.1667 0.5677
5.1833 0.5665
5.2000 0.5654
5.2167 0.5642
5.2333 0.5630
5.2500 0.5619
5.2667 0.5607
5.2833 0.5596
5.3000 0.5585
5.3167 0.5574
5.3333 0.5563
5.3500 0.5552
5.3667 0.5541
5.3833 0.5530
5.4000 0.5519
5.4167 0.5509
5.4333 0.5498
5.4500 0.5488
5.4667 0.5477
5.4833 0.5527
5.5000 0.5577
5.5167 0.5627
5.5333 0.5677
5.5500 0.5727
5.5667 0.5777
5.5833 0.5827
5.6000 0.5877
5.6167 0.5927
5.6333 0.5977
5.6500 0.6027
5.6667 0.6077
5.6833 0.6127
5.7000 0.6177
5.7167 0.6227
5.7333 0.6277
5.7500 0.6327
5.7667 0.6377
5.7833 0.6427
5.8000 0.6477
5.8167 0.6527
5.8333 0.6577
5.8500 0.6627
5.8667 0.6677
5.8833 0.6727
5.9000 0.6777
5.9167 0.6827
5.9333 0.6877
5.9500 0.6927
5.9667 0.6977
5.9833 0.5193
6.0000 0.5185
6.0167 0.5177
6.0333 0.5169
6.0500 0.5161
6.0667 0.5154
6.0833 0.5146
6.1000 0.5138
6.1167 0.5130
6.1333 0.5123
6.1500 0.5115
6.1667 0.5108
6.1833 0.5100
6.2000 0.5093
6.2167 0.5086
6.2333 0.5079
6.2500 0.5071
6.2667 0.5064
6.2833 0.5057
6.3000 0.5050
6.3167 0.5043
6.3333 0.5036
6.3500 0.5029
6.3667 0.5023
6.3833 0.5016
6.4000 0.5009
6.4167 0.5002
6.4333 0.4996
6.4500 0.4989
6.4667 0.4983
6.4833 0.5033
6.5000 0.5083
6.5167 0.5133
6.5333 0.5183
6.5500 0.5233
6.5667 0.5283
6.5833 0.5333
6.6000 0.5383
6.6167 0.5433
6.6333 0.5483
6.6500 0.5533
6.6667 0.5583
6.6833 0.5633
6.7000 0.5683
6.7167 0.5733
6.7333 0.5783
6.7500 0.5833
6.7667 0.5883
6.7833 0.5933
6.8000 0.5983
6.8167 0.6033
6.8333 0.6083
6.8500 0.6133
6.8667 0.6183
6.8833 0.6233
6.9000 0.6283
6.9167 0.6333
6.9333 0.6383
6.9500 0.6433
6.9667 0.6483
6.9833 0.4804
7.0000 0.4798
7.0167 0.4793
7.0333 0.4788
7.0500 0.4783
7.0667 0.4778
7.0833 0.4773
7.1000 0.4769
7.1167 0.4764
7.1333 0.4759
7.1500 0.4754
7.1667 0.4749
7.1833 0.4745
7.2000 0.4740
7.2167 0.4735
7.2333 0.4731
7.2500 0.4726
7.2667 0.4722
7.2833 0.4717
7.3000 0.4713
7.3167 0.4708
7.3333 0.4704
7.3500 0.4699
7.3667 0.4695
7.3833 0.4691
7.4000 0.4686
7.4167 0.4682
7.4333 0.4678
7.4500 0.4674
7.4667 0.4670
7.4833 0.4720
7.5000 0.4770
7.5167 0.4820
7.5333 0.4870
7.5500 0.4920
7.5667 0.4970
7.5833 0.5020
7.6000 0.5070
7.6167 0.5120
7.6333 0.5170
7.6500 0.5220
7.6667 0.5270
7.6833 0.5320
7.7000 0.5370
7.7167 0.5420
7.7333 0.5470
7.7500 0.5520
7.7667 0.5570
7.7833 0.5620
7.8000 0.5670
7.8167 0.5720
7.8333 0.5770
7.8500 0.5820
7.8667 0.5870
7.8833 0.5920
7.9000 0.5970
7.9167 0.6020
7.9333 0.6070
7.9500 0.6120
7.9667 0.6170
7.9833 0.4554
8.0000 0.4551
8.0167 0.4547
8.0333 0.4544
8.0500 0.4541
8.0667 0.4538
8.0833 0.4534
8.1000 0.4531
8.1167 0.4528
8.1333 0.4525
8.1500 0.4522
8.1667 0.4519
8.1833 0.4516
8.2000 0.4513
8.2167 0.4510
8.2333 0.4507
8.2500 0.4504
8.2667 0.4501
8.2833 0.4498
8.3000 0.4495
8.3167 0.4492
8.3333 0.4489
8.3500 0.4486
8.3667 0.4483
8.3833 0.4480
8.4000 0.4477
8.4167 0.4475
8.4333 0.4472
8.4500 0.4469
8.4667 0.4466
8.4833 0.4516
8.5000 0.4566
8.5167 0.4616
8.5333 0.4666
8.5500 0.4716
8.5667 0.4766
8.5833 0.4816
8.6000 0.4866
8.6167 0.4916
8.6333 0.4966
8.6500 0.5016
8.6667 0.5066
8.6833 0.5116
8.7000 0.5166
8.7167 0.5216
8.7333 0.5266
8.7500 0.5316
8.7667 0.5366
8.7833 0.5416
8.8000 0.5466
8.8167 0.5516
8.8333 0.5566
8.8500 0.5616
8.8667 0.5666
8.8833 0.5716
8.9000 0.5766
8.9167 0.5816
8.9333 0.5866
8.9500 0.5916
8.9667 0.5966
8.9833 0.4390
9.0000 0.4387
9.0167 0.4385
9.0333 0.4383
9.0500 0.4381
9.0667 0.4379
9.0833 0.4376
9.1000 0.4374
9.1167 0.4372
9.1333 0.4370
9.1500 0.4368
9.1667 0.4366
9.1833 0.4364
9.2000 0.4362
9.2167 0.4360
9.2333 0.4358
9.2500 0.4355
9.2667 0.4353
9.2833 0.4351
9.3000 0.4349
9.3167 0.4347
9.3333 0.4346
9.3500 0.4344
9.3667 0.4342
9.3833 0.4340
9.4000 0.4338
9.4167 0.4336
9.4333 0.4334
9.4500 0.4332
9.4667 0.4330
9.4833 0.4380
9.5000 0.4430
9.5167 0.4480
9.5333 0.4530
9.5500 0.4580
9.5667 0.4630
9.5833 0.4680
9.6000 0.4730
9.6167 0.4780
9.6333 0.4830
9.6500 0.4880
9.6667 0.4930
9.6833 0.4980
9.7000 0.5030
9.7167 0.5080
9.7333 0.5130
9.7500 0.5180
9.7667 0.5230
9.7833 0.5280
9.8000 0.5330
9.8167 0.5380
9.8333 0.5430
9.8500 0.5480
9.8667 0.5530
9.8833 0.5580
9.9000 0.5630
9.9167 0.5680
9.9333 0.5730
9.9500 0.5780
9.9667 0.5830
9.9833 0.4277
10.0000 0.4275
10.0167 0.4274
10.0333 0.4272
10.0500 0.4271
10.0667 0.4269
10.0833 0.4268
10.1000 0.4266
10.1167 0.4265
10.1333 0.4263
10.1500 0.4262
10.1667 0.4260
10.1833 0.4259
10.2000 0.4257
10.2167 0.4256
10.2333 0.4254
10.2500 0.4253
10.2667 0.4251
10.2833 0.4250
10.3000 0.4248
10.3167 0.4247
10.3333 0.4246
10.3500 0.4244
10.3667 0.4243
10.3833 0.4241
10.4000 0.4240
10.4167 0.4239
10.4333 0.4237
10.4500 0.4236
10.4667 0.4235
10.4833 0.4285
10.5000 0.4335
10.5167 0.4385
10.5333 0.4435
10.5500 0.4485
10.5667 0.4535
10.5833 0.4585
10.6000 0.4635
10.6167 0.4685
10.6333 0.4735
10.6500 0.4785
10.6667 0.4835
10.6833 0.4885
10.7000 0.4935
10.7167 0.4985
10.7333 0.5035
10.7500 0.5085
10.7667 0.5135
10.7833 0.5185
10.8000 0.5235
10.8167 0.5285
10.8333 0.5335
10.8500 0.5385
10.8667 0.5435
10.8833 0.5485
10.9000 0.5535
10.9167 0.5585
10.9333 0.5635
10.9500 0.5685
10.9667 0.5735
10.9833 0.4196
11.0000 0.4194
11.0167 0.4193
11.0333 0.4192
11.0500 0.4191
11.0667 0.4190
11.0833 0.4189
11.1000 0.4188
11.1167 0.4186
11.1333 0.4185
11.1500 0.4184
11.1667 0.4183
11.1833 0.4182
11.2000 0.4181
11.2167 0.4180
11.2333 0.4179
11.2500 0.4178
11.2667 0.4177
11.2833 0.4175
11.3000 0.4174
11.3167 0.4173
11.3333 0.4172
11.3500 0.4171
11.3667 0.4170
11.3833 0.4169
11.4000 0.4168
11.4167 0.4167
11.4333 0.4166
11.4500 0.4165
11.4667 0.4164
11.4833 0.4214
11.5000 0.4264
11.5167 0.4314
11.5333 0.4364
11.5500 0.4414
11.5667 0.4464
11.5833 0.4514
11.6000 0.4564
11.6167 0.4614
11.6333 0.4664
11.6500 0.4714
11.6667 0.4764
11.6833 0.4814
11.7000 0.4864
11.7167 0.4914
11.7333 0.4964
11.7500 0.5014
11.7667 0.5064
11.7833 0.5114
11.8000 0.5164
11.8167 0.5214
11.8333 0.5264
11.8500 0.5314
11.8667 0.5364
11.8833 0.5414
11.9000 0.5464
11.9167 0.5514
11.9333 0.5564
11.9500 0.5614
11.9667 0.5664
11.9833 0.4134
12.0000 0.4133
12.0167 0.4132
12.0333 0.4131
12.0500 0.4130
12.0667 0.4129
12.0833 0.4128
12.1000 0.4127
12.1167 0.4126
12.1333 0.4125
12.1500 0.4125
12.1667 0.4124
12.1833 0.4123
12.2000 0.4122
12.2167 0.4121
12.2333 0.4120
12.2500 0.4119
12.2667 0.4118
12.2833 0.4118
12.3000 0.4117
12.3167 0.4116
12.3333 0.4115
12.3500 0.4114
12.3667 0.4113
12.3833 0.4112
12.4000 0.4112
12.4167 0.4111
12.4333 0.4110
12.4500 0.4109
12.4667 0.4108
12.4833 0.4158
12.5000 0.4208
12.5167 0.4258
12.5333 0.4308
12.5500 0.4358
12.5667 0.4408
12.5833 0.4458
12.6000 0.4508
12.6167 0.4558
12.6333 0.4608
12.6500 0.4658
12.6667 0.4708
12.6833 0.4758
12.7000 0.4808
12.7167 0.4858
12.7333 0.4908
12.7500 0.4958
12.7667 0.5008
12.7833 0.5058
12.8000 0.5108
12.8167 0.5158
12.8333 0.5208
12.8500 0.5258
12.8667 0.5308
12.8833 0.5358
12.9000 0.5408
12.9167 0.5458
12.9333 0.5508
12.9500 0.5558
12.9667 0.5608
12.9833 0.4083
13.0000 0.4083
13.0167 0.4082
13.0333 0.4081
13.0500 0.4080
13.0667 0.4080
13.0833 0.4079
13.1000 0.4078
13.1167 0.4077
13.1333 0.4077
13.1500 0.4076
13.1667 0.4075
13.1833 0.4074
13.2000 0.4074
13.2167 0.4073
13.2333 0.4072
13.2500 0.4071
13.2667 0.4071
13.2833 0.4070
13.3000 0.4069
13.3167 0.4068
13.3333 0.4068
13.3500 0.4067
13.3667 0.4066
13.3833 0.4065
13.4000 0.4065
13.4167 0.4064
13.4333 0.4063
13.4500 0.4063
13.4667 0.4062
13.4833 0.4112
13.5000 0.4162
13.5167 0.4212
13.5333 0.4262
13.5500 0.4312
13.5667 0.4362
13.5833 0.4412
13.6000 0.4462
13.6167 0.4512
13.6333 0.4562
13.6500 0.4612
13.6667 0.4662
13.6833 0.4712
13.7000 0.4762
13.7167 0.4812
13.7333 0.4862
13.7500 0.4912
13.7667 0.4962
13.7833 0.5012
13.8000 0.5062
13.8167 0.5112
13.8333 0.5162
13.8500 0.5212
13.8667 0.5262
13.8833 0.5312
13.9000 0.5362
13.9167 0.5412
13.9333 0.5462
13.9500 0.5512
13.9667 0.5562
13.9833 0.4040
14.0000 0.4040
14.0167 0.4039
14.0333 0.4038
14.0500 0.4038
14.0667 0.4037
14.0833 0.4036
14.1000 0.4036
14.1167 0.4035
14.1333 0.4034
14.1500 0.4034
14.1667 0.4033
14.1833 0.4032
14.2000 0.4032
14.2167 0.4031
14.2333 0.4030
14.2500 0.4030
14.2667 0.4029
14.2833 0.4028
14.3000 0.4028
14.3167 0.4027
14.3333 0.4026
14.3500 0.4026
14.3667 0.4025
14.3833 0.4024
14.4000 0.4024
14.4167 0.4023
14.4333 0.4022
14.4500 0.4022
14.4667 0.4021
14.4833 0.4071
14.5000 0.4121
14.5167 0.4171
14.5333 0.4221
14.5500 0.4271
14.5667 0.4321
14.5833 0.4371
14.6000 0.4421
14.6167 0.4471
14.6333 0.4521
14.6500 0.4571
14.6667 0.4621
14.6833 0.4671
14.7000 0.4721
14.7167 0.4771
14.7333 0.4821
14.7500 0.4871
14.7667 0.4921
14.7833 0.4971
14.8000 0.5021
14.8167 0.5071
14.8333 0.5121
14.8500 0.5171
14.8667 0.5221
14.8833 0.5271
14.9000 0.5321
14.9167 0.5371
14.9333 0.5421
14.9500 0.5471
14.9667 0.5521
14.9833 0.4002
15.0000 0.4001
15.0167 0.4000
15.0333 0.4000
15.0500 0.3999
15.0667 0.3999
15.0833 0.3998
15.1000 0.3997
15.1167 0.3997
15.1333 0.3996
15.1500 0.3996
15.1667 0.3995
15.1833 0.3994
15.2000 0.3994
15.2167 0.3993
15.2333 0.3993
15.2500 0.3992
15.2667 0.3991
15.2833 0.3991
15.3000 0.3990
15.3167 0.3990
15.3333 0.3989
15.3500 0.3988
15.3667 0.3988
15.3833 0.3987
15.4000 0.3987
15.4167 0.3986
15.4333 0.3985
15.4500 0.3985
15.4667 0.3984
15.4833 0.4034
15.5000 0.4084
15.5167 0.4134
15.5333 0.4184
15.5500 0.4234
15.5667 0.4284
15.5833 0.4334
15.6000 0.4384
15.6167 0.4434
15.6333 0.4484
15.6500 0.4534
15.6667 0.4584
15.6833 0.4634
15.7000 0.4684
15.7167 0.4734
15.7333 0.4784
15.7500 0.4834
15.7667 0.4884
15.7833 0.4934
15.8000 0.4984
15.8167 0.5034
15.8333 0.5084
15.8500 0.5134
15.8667 0.5184
15.8833 0.5234
15.9000 0.5284
15.9167 0.5334
15.9333 0.5384
15.9500 0.5434
15.9667 0.5484
15.9833 0.3966
16.0000 0.3965
16.0167 0.3965
16.0333 0.3964
16.0500 0.3964
16.0667 0.3963
16.0833 0.3962
16.1000 0.3962
16.1167 0.3961
16.1333 0.3961
16.1500 0.3960
16.1667 0.3960
16.1833 0.3959
16.2000 0.3958
16.2167 0.3958
16.2333 0.3957
16.2500 0.3957
16.2667 0.3956
16.2833 0.3956
16.3000 0.3955
16.3167 0.3954
16.3333 0.3954
16.3500 0.3953
16.3667 0.3953
16.3833 0.3952
16.4000 0.3952
16.4167 0.3951
16.4333 0.3951
16.4500 0.3950
16.4667 0.3949
16.4833 0.3999
16.5000 0.4049
16.5167 0.4099
16.5333 0.4149
16.5500 0.4199
16.5667 0.4249
16.5833 0.4299
16.6000 0.4349
16.6167 0.4399
16.6333 0.4449
16.6500 0.4499
16.6667 0.4549
16.6833 0.4599
16.7000 0.4649
16.7167 0.4699
16.7333 0.4749
16.7500 0.4799
16.7667 0.4849
16.7833 0.4899
16.8000 0.4949
16.8167 0.4999
16.8333 0.5049
16.8500 0.5099
16.8667 0.5149
16.8833 0.5199
16.9000 0.5249
16.9167 0.5299
16.9333 0.5349
16.9500 0.5399
16.9667 0.5449
16.9833 0.3932
17.0000 0.3931
17.0167 0.3931
17.0333 0.3930
17.0500 0.3930
17.0667 0.3929
17.0833 0.3929
17.1000 0.3928
17.1167 0.3928
17.1333 0.3927
17.1500 0.3926
17.1667 0.3926
17.1833 0.3925
17.2000 0.3925
17.2167 0.3924
17.2333 0.3924
17.2500 0.3923
17.2667 0.3923
17.2833 0.3922
17.3000 0.3922
17.3167 0.3921
17.3333 0.3920
17.3500 0.3920
17.3667 0.3919
17.3833 0.3919
17.4000 0.3918
17.4167 0.3918
17.4333 0.3917
17.4500 0.3917
17.4667 0.3916
17.4833 0.3966
17.5000 0.4016
17.5167 0.4066
17.5333 0.4116
17.5500 0.4166
17.5667 0.4216
17.5833 0.4266
17.6000 0.4316
17.6167 0.4366
17.6333 0.4416
17.6500 0.4466
17.6667 0.4516
17.6833 0.4566
17.7000 0.4616
17.7167 0.4666
17.7333 0.4716
17.7500 0.4766
17.7667 0.4816
17.7833 0.4866
17.8000 0.4916
17.8167 0.4966
17.8333 0.5016
17.8500 0.5066
17.8667 0.5116
17.8833 0.5166
17.9000 0.5216
17.9167 0.5266
17.9333 0.5316
17.9500 0.5366
17.9667 0.5416
17.9833 0.3899
18.0000 0.3899
18.0167 0.3898
18.0333 0.3898
18.0500 0.3897
18.0667 0.3897
18.0833 0.3896
18.1000 0.3895
18.1167 0.3895
18.1333 0.3894
18.1500 0.3894
18.1667 0.3893
18.1833 0.3893
18.2000 0.3892
18.2167 0.3892
18.2333 0.3891
18.2500 0.3891
18.2667 0.3890
18.2833 0.3890
18.3000 0.3889
18.3167 0.3889
18.3333 0.3888
18.3500 0.3887
18.3667 0.3887
18.3833 0.3886
18.4000 0.3886
18.4167 0.3885
18.4333 0.3885
18.4500 0.3884
18.4667 0.3884
18.4833 0.3934
18.5000 0.3984
18.5167 0.4034
18.5333 0.4084
18.5500 0.4134
18.5667 0.4184
18.5833 0.4234
18.6000 0.4284
18.6167 0.4334
18.6333 0.4384
18.6500 0.4434
18.6667 0.4484
18.6833 0.4534
18.7000 0.4584
18.7167 0.4634
18.7333 0.4684
18.7500 0.4734
18.7667 0.4784
18.7833 0.4834
18.8000 0.4884
18.8167 0.4934
18.8333 0.4984
18.8500 0.5034
18.8667 0.5084
18.8833 0.5134
18.9000 0.5184
18.9167 0.5234
18.9333 0.5284
18.9500 0.5334
18.9667 0.5384
18.9833 0.3867
19.0000 0.3867
19.0167 0.3866
19.0333 0.3866
19.0500 0.3865
19.0667 0.3865
19.0833 0.3864
19.1000 0.3864
19.1167 0.3863
19.1333 0.3863
19.1500 0.3862
19.1667 0.3862
19.1833 0.3861
19.2000 0.3860
19.2167 0.3860
19.2333 0.3859
19.2500 0.3859
19.2667 0.3858
19.2833 0.3858
19.3000 0.3857
19.3167 0.3857
19.3333 0.3856
19.3500 0.3856
19.3667 0.3855
19.3833 0.3855
19.4000 0.3854
19.4167 0.3854
19.4333 0.3853
19.4500 0.3853
19.4667 0.3852
19.4833 0.3902
19.5000 0.3952
19.5167 0.4002
19.5333 0.4052
19.5500 0.4102
19.5667 0.4152
19.5833 0.4202
19.6000 0.4252
19.6167 0.4302
19.6333 0.4352
19.6500 0.4402
19.6667 0.4452
19.6833 0.4502
19.7000 0.4552
19.7167 0.4602
19.7333 0.4652
19.7500 0.4702
19.7667 0.4752
19.7833 0.4802
19.8000 0.4852
19.8167 0.4902
19.8333 0.4952
19.8500 0.5002
19.8667 0.5052
19.8833 0.5102
19.9000 0.5152
19.9167 0.5202
19.9333 0.5252
19.9500 0.5302
19.9667 0.5352
19.9833 0.3836
20.0000 0.3835
20.0167 0.3835
20.0333 0.3834
20.0500 0.3834
20.0667 0.3833
20.0833 0.3833
20.1000 0.3832
20.1167 0.3832
20.1333 0.3831
20.1500 0.3831
20.1667 0.3830
20.1833 0.3830
20.2000 0.3829
20.2167 0.3829
20.2333 0.3828
20.2500 0.3828
20.2667 0.3827
20.2833 0.3827
20.3000 0.3826
20.3167 0.3826
20.3333 0.3825
20.3500 0.3825
20.3667 0.3824
20.3833 0.3824
20.4000 0.3823
20.4167 0.3823
20.4333 0.3822
20.4500 0.3822
20.4667 0.3821
20.4833 0.3871
20.5000 0.3921
20.5167 0.3971
20.5333 0.4021
20.5500 0.4071
20.5667 0.4121
20.5833 0.4171
20.6000 0.4221
20.6167 0.4271
20.6333 0.4321
20.6500 0.4371
20.6667 0.4421
20.6833 0.4471
20.7000 0.4521
20.7167 0.4571
20.7333 0.4621
20.7500 0.4671
20.7667 0.4721
20.7833 0.4771
20.8000 0.4821
20.8167 0.4871
20.8333 0.4921
20.8500 0.4971
20.8667 0.5021
20.8833 0.5071
20.9000 0.5121
20.9167 0.5171
20.9333 0.5221
20.9500 0.5271
20.9667 0.5321
20.9833 0.3805
21.0000 0.3805
21.0167 0.3804
21.0333 0.3804
21.0500 0.3803
21.0667 0.3803
21.0833 0.3802
21.1000 0.3802
21.1167 0.3801
21.1333 0.3801
21.1500 0.3800
21.1667 0.3799
21.1833 0.3799
21.2000 0.3798
21.2167 0.3798
21.2333 0.3797
21.2500 0.3797
21.2667 0.3796
21.2833 0.3796
21.3000 0.3795
21.3167 0.3795
21.3333 0.3794
21.3500 0.3794
21.3667 0.3793
21.3833 0.3793
21.4000 0.3792
21.4167 0.3792
21.4333 0.3791
21.4500 0.3791
21.4667 0.3790
21.4833 0.3840
21.5000 0.3890
21.5167 0.3940
21.5333 0.3990
21.5500 0.4040
21.5667 0.4090
21.5833 0.4140
21.6000 0.4190
21.6167 0.4240
21.6333 0.4290
21.6500 0.4340
21.6667 0.4390
21.6833 0.4440
21.7000 0.4490
21.7167 0.4540
21.7333 0.4590
21.7500 0.4640
21.7667 0.4690
21.7833 0.4740
21.8000 0.4790
21.8167 0.4840
21.8333 0.4890
21.8500 0.4940
21.8667 0.4990
21.8833 0.5040
21.9000 0.5090
21.9167 0.5140
21.9333 0.5190
21.9500 0.5240
21.9667 0.5290
21.9833 0.3775
22.0000 0.3774
22.0167 0.3774
22.0333 0.3773
22.0500 0.3773
22.0667 0.3772
22.0833 0.3772
22.1000 0.3771
22.1167 0.3771
22.1333 0.3770
22.1500 0.3770
22.1667 0.3769
22.1833 0.3769
22.2000 0.3768
22.2167 0.3768
22.2333 0.3767
22.2500 0.3767
22.2667 0.3766
22.2833 0.3765
22.3000 0.3765
22.3167 0.3764
22.3333 0.3764
22.3500 0.3763
22.3667 0.3763
22.3833 0.3762
22.4000 0.3762
22.4167 0.3761
22.4333 0.3761
22.4500 0.3760
22.4667 0.3760
22.4833 0.3810
22.5000 0.3860
22.5167 0.3910
22.5333 0.3960
22.5500 0.4010
22.5667 0.4060
22.5833 0.4110
22.6000 0.4160
22.6167 0.4210
22.6333 0.4260
22.6500 0.4310
22.6667 0.4360
22.6833 0.4410
22.7000 0.4460
22.7167 0.4510
22.7333 0.4560
22.7500 0.4610
22.7667 0.4660
22.7833 0.4710
22.8000 0.4760
22.8167 0.4810
22.8333 0.4860
22.8500 0.4910
22.8667 0.4960
22.8833 0.5010
22.9000 0.5060
22.9167 0.5110
22.9333 0.5160
22.9500 0.5210
22.9667 0.5260
22.9833 0.3744
23.0000 0.3744
23.0167 0.3743
23.0333 0.3743
23.0500 0.3742
23.0667 0.3742
23.0833 0.3741
23.1000 0.3741
23.1167 0.3740
23.1333 0.3740
23.1500 0.3739
23.1667 0.3739
23.1833 0.3738
23.2000 0.3738
23.2167 0.3737
23.2333 0.3737
23.2500 0.3736
23.2667 0.3736
23.2833 0.3735
23.3000 0.3735
23.3167 0.3734
23.3333 0.3734
23.3500 0.3733
23.3667 0.3733
23.3833 0.3732
23.4000 0.3732
23.4167 0.3731
23.4333 0.3731
23.4500 0.3730
23.4667 0.3730
23.4833 0.3780
23.5000 0.3830
23.5167 0.3880
23.5333 0.3930
23.5500 0.3980
23.5667 0.4030
23.5833 0.4080
23.6000 0.4130
23.6167 0.4180
23.6333 0.4230
23.6500 0.4280
23.6667 0.4330
23.6833 0.4380
23.7000 0.4430
23.7167 0.4480
23.7333 0.4530
23.7500 0.4580
23.7667 0.4630
23.7833 0.4680
23.8000 0.4730
23.8167 0.4780
23.8333 0.4830
23.8500 0.4880
23.8667 0.4930
23.8833 0.4980
23.9000 0.5030
23.9167 0.5080
23.9333 0.5130
23.9500 0.5180
23.9667 0.5230
23.9833 0.3714
24.0000 0.3714
24.0167 0.3713
24.0333 0.3713
24.0500 0.3713
24.0667 0.3712
24.0833 0.3712
24.1000 0.3711
24.1167 0.3711
24.1333 0.3710
24.1500 0.3710
24.1667 0.3709
24.1833 0.3709
24.2000 0.3708
24.2167 0.3708
24.2333 0.3707
24.2500 0.3707
24.2667 0.3706
24.2833 0.3706
24.3000 0.3705
24.3167 0.3705
24.3333 0.3704
24.3500 0.3704
24.3667 0.3703
24.3833 0.3703
24.4000 0.3702
24.4167 0.3702
24.4333 0.3701
24.4500 0.3701
24.4667 0.3700
24.4833 0.3750
24.5000 0.3800
24.5167 0.3850
24.5333 0.3900
24.5500 0.3950
24.5667 0.4000
24.5833 0.4050
24.6000 0.4100
24.6167 0.4150
24.6333 0.4200
24.6500 0.4250
24.6667 0.4300
24.6833 0.4350
24.7000 0.4400
24.7167 0.4450
24.7333 0.4500
24.7500 0.4550
24.7667 0.4600
24.7833 0.4650
24.8000 0.4700
24.8167 0.4750
24.8333 0.4800
24.8500 0.4850
24.8667 0.4900
24.8833 0.4950
24.9000 0.5000
24.9167 0.5050
24.9333 0.5100
24.9500 0.5150
24.9667 0.5200
24.9833 0.3685
25.0000 0.3684
25.0167 0.3684
25.0333 0.3683
25.0500 0.3683
25.0667 0.3682
25.0833 0.3682
25.1000 0.3681
25.1167 0.3681
25.1333 0.3680
25.1500 0.3680
25.1667 0.3679
25.1833 0.3679
25.2000 0.3678
25.2167 0.3678
25.2333 0.3677
25.2500 0.3677
25.2667 0.3676
25.2833 0.3676
25.3000 0.3676
25.3167 0.3675
25.3333 0.3675
25.3500 0.3674
25.3667 0.3674
25.3833 0.3673
25.4000 0.3673
25.4167 0.3672
25.4333 0.3672
25.4500 0.3671
25.4667 0.3671
25.4833 0.3721
25.5000 0.3771
25.5167 0.3821
25.5333 0.3871
25.5500 0.3921
25.5667 0.3971
25.5833 0.4021
25.6000 0.4071
25.6167 0.4121
25.6333 0.4171
25.6500 0.4221
25.6667 0.4271
25.6833 0.4321
25.7000 0.4371
25.7167 0.4421
25.7333 0.4471
25.7500 0.4521
25.7667 0.4571
25.7833 0.4621
25.8000 0.4671
25.8167 0.4721
25.8333 0.4771
25.8500 0.4821
25.8667 0.4871
25.8833 0.4921
25.9000 0.4971
25.9167 0.5021
25.9333 0.5071
25.9500 0.5121
25.9667 0.5171
25.9833 0.3655
26.0000 0.3655
26.0167 0.3654
26.0333 0.3654
26.0500 0.3654
26.0667 0.3653
26.0833 0.3653
26.1000 0.3652
26.1167 0.3652
26.1333 0.3651
26.1500 0.3651
26.1667 0.3650
26.1833 0.3650
26.2000 0.3649
26.2167 0.3649
26.2333 0.3648
26.2500 0.3648
26.2667 0.3647
26.2833 0.3647
26.3000 0.3646
26.3167 0.3646
26.3333 0.3645
26.3500 0.3645
26.3667 0.3644
26.3833 0.3644
26.4000 0.3643
26.4167 0.3643
26.4333 0.3642
26.4500 0.3642
26.4667 0.3641
26.4833 0.3691
26.5000 0.3741
26.5167 0.3791
26.5333 0.3841
26.5500 0.3891
26.5667 0.3941
26.5833 0.3991
26.6000 0.4041
26.6167 0.4091
26.6333 0.4141
26.6500 0.4191
26.6667 0.4241
26.6833 0.4291
26.7000 0.4341
26.7167 0.4391
26.7333 0.4441
26.7500 0.4491
26.7667 0.4541
26.7833 0.4591
26.8000 0.4641
26.8167 0.4691
26.8333 0.4741
26.8500 0.4791
26.8667 0.4841
26.8833 0.4891
26.9000 0.4941
26.9167 0.4991
26.9333 0.5041
26.9500 0.5091
26.9667 0.5141
26.9833 0.3626
27.0000 0.3626
27.0167 0.3625
27.0333 0.3625
27.0500 0.3624
27.0667 0.3624
27.0833 0.3623
27.1000 0.3623
27.1167 0.3622
27.1333 0.3622
27.1500 0.3621
27.1667 0.3621
27.1833 0.3621
27.2000 0.3620
27.2167 0.3620
27.2333 0.3619
27.2500 0.3619
27.2667 0.3618
27.2833 0.3618
27.3000 0.3617
27.3167 0.3617
27.3333 0.3616
27.3500 0.3616
27.3667 0.3615
27.3833 0.3615
27.4000 0.3614
27.4167 0.3614
27.4333 0.3613
27.4500 0.3613
27.4667 0.3612
27.4833 0.3662
27.5000 0.3712
27.5167 0.3762
27.5333 0.3812
27.5500 0.3862
27.5667 0.3912
27.5833 0.3962
27.6000 0.4012
27.6167 0.4062
27.6333 0.4112
27.6500 0.4162
27.6667 0.4212
27.6833 0.4262
27.7000 0.4312
27.7167 0.4362
27.7333 0.4412
27.7500 0.4462
27.7667 0.4512
27.7833 0.4562
27.8000 0.4612
27.8167 0.4662
27.8333 0.4712
27.8500 0.4762
27.8667 0.4812
27.8833 0.4862
27.9000 0.4912
27.9167 0.4962
27.9333 0.5012
27.9500 0.5062
27.9667 0.5112
27.9833 0.3597
28.0000 0.3597
28.0167 0.3596
28.0333 0.3596
28.0500 0.3595
28.0667 0.3595
28.0833 0.3595
28.1000 0.3594
28.1167 0.3594
28.1333 0.3593
28.1500 0.3593
28.1667 0.3592
28.1833 0.3592
28.2000 0.3591
28.2167 0.3591
28.2333 0.3590
28.2500 0.3590
28.2667 0.3589
28.2833 0.3589
28.3000 0.3588
28.3167 0.3588
28.3333 0.3587
28.3500 0.3587
28.3667 0.3586
28.3833 0.3586
28.4000 0.3585
28.4167 0.3585
28.4333 0.3584
28.4500 0.3584
28.4667 0.3584
28.4833 0.3634
28.5000 0.3684
28.5167 0.3734
28.5333 0.3784
28.5500 0.3834
28.5667 0.3884
28.5833 0.3934
28.6000 0.3984
28.6167 0.4034
28.6333 0.4084
28.6500 0.4134
28.6667 0.4184
28.6833 0.4234
28.7000 0.4284
28.7167 0.4334
28.7333 0.4384
28.7500 0.4434
28.7667 0.4484
28.7833 0.4534
28.8000 0.4584
28.8167 0.4634
28.8333 0.4684
28.8500 0.4734
28.8667 0.4784
28.8833 0.4834
28.9000 0.4884
28.9167 0.4934
28.9333 0.4984
28.9500 0.5034
28.9667 0.5084
28.9833 0.3569
29.0000 0.3568
29.0167 0.3568
29.0333 0.3567
29.0500 0.3567
29.0667 0.3566
29.0833 0.3566
29.1000 0.3565
29.1167 0.3565
29.1333 0.3564
29.1500 0.3564
29.1667 0.3564
29.1833 0.3563
29.2000 0.3563
29.2167 0.3562
29.2333 0.3562
29.2500 0.3561
29.2667 0.3561
29.2833 0.3560
29.3000 0.3560
29.3167 0.3559
29.3333 0.3559
29.3500 0.3558
29.3667 0.3558
29.3833 0.3557
29.4000 0.3557
29.4167 0.3556
29.4333 0.3556
29.4500 0.3555
29.4667 0.3555
29.4833 0.3605
29.5000 0.3655
29.5167 0.3705
29.5333 0.3755
29.5500 0.3805
29.5667 0.3855
29.5833 0.3905
29.6000 0.3955
29.6167 0.4005
29.6333 0.4055
29.6500 0.4105
29.6667 0.4155
29.6833 0.4205
29.7000 0.4255
29.7167 0.4305
29.7333 0.4355
29.7500 0.4405
29.7667 0.4455
29.7833 0.4505
29.8000 0.4555
29.8167 0.4605
29.8333 0.4655
29.8500 0.4705
29.8667 0.4755
29.8833 0.4805
29.9000 0.4855
29.9167 0.4905
29.9333 0.4955
29.9500 0.5005
29.9667 0.5055
29.9833 0.3540
30.0000 0.3540
30.0167 0.3539
30.0333 0.3539
30.0500 0.3538
30.0667 0.3538
30.0833 0.3537
30.1000 0.3537
30.1167 0.3537
30.1333 0.3536
30.1500 0.3536
30.1667 0.3535
30.1833 0.3535
30.2000 0.3534
30.2167 0.3534
30.2333 0.3533
30.2500 0.3533
30.2667 0.3532
30.2833 0.3532
30.3000 0.3531
30.3167 0.3531
30.3333 0.3530
30.3500 0.3530
30.3667 0.3529
30.3833 0.3529
30.4000 0.3529
30.4167 0.3528
30.4333 0.3528
30.4500 0.3527
30.4667 0.3527
30.4833 0.3577
30.5000 0.3627
30.5167 0.3677
30.5333 0.3727
30.5500 0.3777
30.5667 0.3827
30.5833 0.3877
30.6000 0.3927
30.6167 0.3977
30.6333 0.4027
30.6500 0.4077
30.6667 0.4127
30.6833 0.4177
30.7000 0.4227
30.7167 0.4277
30.7333 0.4327
30.7500 0.4377
30.7667 0.4427
30.7833 0.4477
30.8000 0.4527
30.8167 0.4577
30.8333 0.4627
30.8500 0.4677
30.8667 0.4727
30.8833 0.4777
30.9000 0.4827
30.9167 0.4877
30.9333 0.4927
30.9500 0.4977
30.9667 0.5027
30.9833 0.3512
31.0000 0.3512
31.0167 0.3511
31.0333 0.3511
31.0500 0.3510
31.0667 0.3510
31.0833 0.3509
31.1000 0.3509
31.1167 0.3508
31.1333 0.3508
31.1500 0.3507
31.1667 0.3507
31.1833 0.3506
31.2000 0.3506
31.2167 0.3506
31.2333 0.3505
31.2500 0.3505
31.2667 0.3504
31.2833 0.3504
31.3000 0.3503
31.3167 0.3503
31.3333 0.3502
31.3500 0.3502
31.3667 0.3501
31.3833 0.3501
31.4000 0.3500
31.4167 0.3500
31.4333 0.3499
31.4500 0.3499
31.4667 0.3499
31.4833 0.3549
31.5000 0.3599
31.5167 0.3649
31.5333 0.3699
31.5500 0.3749
31.5667 0.3799
31.5833 0.3849
31.6000 0.3899
31.6167 0.3949
31.6333 0.3999
31.6500 0.4049
31.6667 0.4099
31.6833 0.4149
31.7000 0.4199
31.7167 0.4249
31.7333 0.4299
31.7500 0.4349
31.7667 0.4399
31.7833 0.4449
31.8000 0.4499
31.8167 0.4549
31.8333 0.4599
31.8500 0.4649
31.8667 0.4699
31.8833 0.4749
31.9000 0.4799
31.9167 0.4849
31.9333 0.4899
31.9500 0.4949
31.9667 0.4999
31.9833 0.3484
32.0000 0.3484
32.0167 0.3483
32.0333 0.3483
32.0500 0.3482
32.0667 0.3482
32.0833 0.3481
32.1000 0.3481
32.1167 0.3480
32.1333 0.3480
32.1500 0.3479
32.1667 0.3479
32.1833 0.3479
32.2000 0.3478
32.2167 0.3478
32.2333 0.3477
32.2500 0.3477
32.2667 0.3476
32.2833 0.3476
32.3000 0.3475
32.3167 0.3475
32.3333 0.3474
32.3500 0.3474
32.3667 0.3473
32.3833 0.3473
32.4000 0.3473
32.4167 0.3472
32.4333 0.3472
32.4500 0.3471
32.4667 0.3471
32.4833 0.3521
32.5000 0.3571
32.5167 0.3621
32.5333 0.3671
32.5500 0.3721
32.5667 0.3771
32.5833 0.3821
32.6000 0.3871
32.6167 0.3921
32.6333 0.3971
32.6500 0.4021
32.6667 0.4071
32.6833 0.4121
32.7000 0.4171
32.7167 0.4221
32.7333 0.4271
32.7500 0.4321
32.7667 0.4371
32.7833 0.4421
32.8000 0.4471
32.8167 0.4521
32.8333 0.4571
32.8500 0.4621
32.8667 0.4671
32.8833 0.4721
32.9000 0.4771
32.9167 0.4821
32.9333 0.4871
32.9500 0.4921
32.9667 0.4971
32.9833 0.3456
33.0000 0.3456
33.0167 0.3455
33.0333 0.3455
33.0500 0.3455
33.0667 0.3454
33.0833 0.3454
33.1000 0.3453
33.1167 0.3453
33.1333 0.3452
33.1500 0.3452
33.1667 0.3451
33.1833 0.3451
33.2000 0.3450
33.2167 0.3450
33.2333 0.3449
33.2500 0.3449
33.2667 0.3449
33.2833 0.3448
33.3000 0.3448
33.3167 0.3447
33.3333 0.3447
33.3500 0.3446
33.3667 0.3446
33.3833 0.3445
33.4000 0.3445
33.4167 0.3444
33.4333 0.3444
33.4500 0.3443
33.4667 0.3443
33.4833 0.3493
33.5000 0.3543
33.5167 0.3593
33.5333 0.3643
33.5500 0.3693
33.5667 0.3743
33.5833 0.3793
33.6000 0.3843
33.6167 0.3893
33.6333 0.3943
33.6500 0.3993
33.6667 0.4043
33.6833 0.4093
33.7000 0.4143
33.7167 0.4193
33.7333 0.4243
33.7500 0.4293
33.7667 0.4343
33.7833 0.4393
33.8000 0.4443
33.8167 0.4493
33.8333 0.4543
33.8500 0.4593
33.8667 0.4643
33.8833 0.4693
33.9000 0.4743
33.9167 0.4793
33.9333 0.4843
33.9500 0.4893
33.9667 0.4943
33.9833 0.3429
34.0000 0.3428
34.0167 0.3428
34.0333 0.3427
34.0500 0.3427
34.0667 0.3427
34.0833 0.3426
34.1000 0.3426
34.1167 0.3425
34.1333 0.3425
34.1500 0.3424
34.1667 0.3424
34.1833 0.3423
34.2000 0.3423
34.2167 0.3422
34.2333 0.3422
34.2500 0.3421
34.2667 0.3421
34.2833 0.3421
34.3000 0.3420
34.3167 0.3420
34.3333 0.3419
34.3500 0.3419
34.3667 0.3418
34.3833 0.3418
34.4000 0.3417
34.4167 0.3417
34.4333 0.3416
34.4500 0.3416
34.4667 0.3416
34.4833 0.3466
34.5000 0.3516
34.5167 0.3566
34.5333 0.3616
34.5500 0.3666
34.5667 0.3716
34.5833 0.3766
34.6000 0.3816
34.6167 0.3866
34.6333 0.3916
34.6500 0.3966
34.6667 0.4016
34.6833 0.4066
34.7000 0.4116
34.7167 0.4166
34.7333 0.4216
34.7500 0.4266
34.7667 0.4316
34.7833 0.4366
34.8000 0.4416
34.8167 0.4466
34.8333 0.4516
34.8500 0.4566
34.8667 0.4616
34.8833 0.4666
34.9000 0.4716
34.9167 0.4766
34.9333 0.4816
34.9500 0.4866
34.9667 0.4916
34.9833 0.3401
35.0000 0.3401
35.0167 0.3401
35.0333 0.3400
35.0500 0.3400
35.0667 0.3399
35.0833 0.3399
35.1000 0.3398
35.1167 0.3398
35.1333 0.3397
35.1500 0.3397
35.1667 0.3396
35.1833 0.3396
35.2000 0.3396
35.2167 0.3395
35.2333 0.3395
35.2500 0.3394
35.2667 0.3394
35.2833 0.3393
35.3000 0.3393
35.3167 0.3392
35.3333 0.3392
35.3500 0.3392
35.3667 0.3391
35.3833 0.3391
35.4000 0.3390
35.4167 0.3390
35.4333 0.3389
35.4500 0.3389
35.4667 0.3388
35.4833 0.3438
35.5000 0.3488
35.5167 0.3538
35.5333 0.3588
35.5500 0.3638
35.5667 0.3688
35.5833 0.3738
35.6000 0.3788
35.6167 0.3838
35.6333 0.3888
35.6500 0.3938
35.6667 0.3988
35.6833 0.4038
35.7000 0.4088
35.7167 0.4138
35.7333 0.4188
35.7500 0.4238
35.7667 0.4288
35.7833 0.4338
35.8000 0.4388
35.8167 0.4438
35.8333 0.4488
35.8500 0.4538
35.8667 0.4588
35.8833 0.4638
35.9000 0.4688
35.9167 0.4738
35.9333 0.4788
35.9500 0.4838
35.9667 0.4888
35.9833 0.3374
36.0000 0.3374
36.0167 0.3373
36.0333 0.3373
36.0500 0.3373
36.0667 0.3372
36.0833 0.3372
36.1000 0.3371
36.1167 0.3371
36.1333 0.3370
36.1500 0.3370
36.1667 0.3369
36.1833 0.3369
36.2000 0.3369
36.2167 0.3368
36.2333 0.3368
36.2500 0.3367
36.2667 0.3367
36.2833 0.3366
36.3000 0.3366
36.3167 0.3365
36.3333 0.3365
36.3500 0.3364
36.3667 0.3364
36.3833 0.3364
36.4000 0.3363
36.4167 0.3363
36.4333 0.3362
36.4500 0.3362
36.4667 0.3361
36.4833 0.3411
36.5000 0.3461
36.5167 0.3511
36.5333 0.3561
36.5500 0.3611
36.5667 0.3661
36.5833 0.3711
36.6000 0.3761
36.6167 0.3811
36.6333 0.3861
36.6500 0.3911
36.6667 0.3961
36.6833 0.4011
36.7000 0.4061
36.7167 0.4111
36.7333 0.4161
36.7500 0.4211
36.7667 0.4261
36.7833 0.4311
36.8000 0.4361
36.8167 0.4411
36.8333 0.4461
36.8500 0.4511
36.8667 0.4561
36.8833 0.4611
36.9000 0.4661
36.9167 0.4711
36.9333 0.4761
36.9500 0.4811
36.9667 0.4861
36.9833 0.3347
37.0000 0.3347
37.0167 0.3347
37.0333 0.3346
37.0500 0.3346
37.0667 0.3345
37.0833 0.3345
37.1000 0.3344
37.1167 0.3344
37.1333 0.3343
37.1500 0.3343
37.1667 0.3343
37.1833 0.3342
37.2000 0.3342
37.2167 0.3341
37.2333 0.3341
37.2500 0.3340
37.2667 0.3340
37.2833 0.3339
37.3000 0.3339
37.3167 0.3339
37.3333 0.3338
37.3500 0.3338
37.3667 0.3337
37.3833 0.3337
37.4000 0.3336
37.4167 0.3336
37.4333 0.3335
37.4500 0.3335
37.4667 0.3335
37.4833 0.3385
37.5000 0.3435
37.5167 0.3485
37.5333 0.3535
37.5500 0.3585
37.5667 0.3635
37.5833 0.3685
37.6000 0.3735
37.6167 0.3785
37.6333 0.3835
37.6500 0.3885
37.6667 0.3935
37.6833 0.3985
37.7000 0.4035
37.7167 0.4085
37.7333 0.4135
37.7500 0.4185
37.7667 0.4235
37.7833 0.4285
37.8000 0.4335
37.8167 0.4385
37.8333 0.4435
37.8500 0.4485
37.8667 0.4535
37.8833 0.4585
37.9000 0.4635
37.9167 0.4685
37.9333 0.4735
37.9500 0.4785
37.9667 0.4835
37.9833 0.3321
38.0000 0.3320
38.0167 0.3320
38.0333 0.3319
38.0500 0.3319
38.0667 0.3319
38.0833 0.3318
38.1000 0.3318
38.1167 0.3317
38.1333 0.3317
38.1500 0.3316
38.1667 0.3316
38.1833 0.3316
38.2000 0.3315
38.2167 0.3315
38.2333 0.3314
38.2500 0.3314
38.2667 0.3313
38.2833 0.3313
38.3000 0.3312
38.3167 0.3312
38.3333 0.3312
38.3500 0.3311
38.3667 0.3311
38.3833 0.3310
38.4000 0.3310
38.4167 0.3309
38.4333 0.3309
38.4500 0.3308
38.4667 0.3308
38.4833 0.3358
38.5000 0.3408
38.5167 0.3458
38.5333 0.3508
38.5500 0.3558
38.5667 0.3608
38.5833 0.3658
38.6000 0.3708
38.6167 0.3758
38.6333 0.3808
38.6500 0.3858
38.6667 0.3908
38.6833 0.3958
38.7000 0.4008
38.7167 0.4058
38.7333 0.4108
38.7500 0.4158
38.7667 0.4208
38.7833 0.4258
38.8000 0.4308
38.8167 0.4358
38.8333 0.4408
38.8500 0.4458
38.8667 0.4508
38.8833 0.4558
38.9000 0.4608
38.9167 0.4658
38.9333 0.4708
38.9500 0.4758
38.9667 0.4808
38.9833 0.3294
39.0000 0.3294
39.0167 0.3293
39.0333 0.3293
39.0500 0.3293
39.0667 0.3292
39.0833 0.3292
39.1000 0.3291
39.1167 0.3291
39.1333 0.3290
39.1500 0.3290
39.1667 0.3290
39.1833 0.3289
39.2000 0.3289
39.2167 0.3288
39.2333 0.3288
39.2500 0.3287
39.2667 0.3287
39.2833 0.3286
39.3000 0.3286
39.3167 0.3286
39.3333 0.3285
39.3500 0.3285
39.3667 0.3284
39.3833 0.3284
39.4000 0.3283
39.4167 0.3283
39.4333 0.3283
39.4500 0.3282
39.4667 0.3282
39.4833 0.3332
39.5000 0.3382
39.5167 0.3432
39.5333 0.3482
39.5500 0.3532
39.5667 0.3582
39.5833 0.3632
39.6000 0.3682
39.6167 0.3732
39.6333 0.3782
39.6500 0.3832
39.6667 0.3882
39.6833 0.3932
39.7000 0.3982
39.7167 0.4032
39.7333 0.4082
39.7500 0.4132
39.7667 0.4182
39.7833 0.4232
39.8000 0.4282
39.8167 0.4332
39.8333 0.4382
39.8500 0.4432
39.8667 0.4482
39.8833 0.4532
39.9000 0.4582
39.9167 0.4632
39.9333 0.4682
39.9500 0.4732
39.9667 0.4782
39.9833 0.3268
40.0000 0.3268
40.0167 0.3267
40.0333 0.3267
40.0500 0.3266
40.0667 0.3266
40.0833 0.3265
40.1000 0.3265
40.1167 0.3265
40.1333 0.3264
40.1500 0.3264
40.1667 0.3263
40.1833 0.3263
40.2000 0.3262
40.2167 0.3262
40.2333 0.3262
40.2500 0.3261
40.2667 0.3261
40.2833 0.3260
40.3000 0.3260
40.3167 0.3259
40.3333 0.3259
40.3500 0.3259
40.3667 0.3258
40.3833 0.3258
40.4000 0.3257
40.4167 0.3257
40.4333 0.3256
40.4500 0.3256
40.4667 0.3255
40.4833 0.3305
40.5000 0.3355
40.5167 0.3405
40.5333 0.3455
40.5500 0.3505
40.5667 0.3555
40.5833 0.3605
40.6000 0.3655
40.6167 0.3705
40.6333 0.3755
40.6500 0.3805
40.6667 0.3855
40.6833 0.3905
40.7000 0.3955
40.7167 0.4005
40.7333 0.4055
40.7500 0.4105
40.7667 0.4155
40.7833 0.4205
40.8000 0.4255
40.8167 0.4305
40.8333 0.4355
40.8500 0.4405
40.8667 0.4455
40.8833 0.4505
40.9000 0.4555
40.9167 0.4605
40.9333 0.4655
40.9500 0.4705
40.9667 0.4755
40.9833 0.3242
41.0000 0.3242
41.0167 0.3241
41.0333 0.3241
41.0500 0.3240
41.0667 0.3240
41.0833 0.3239
41.1000 0.3239
41.1167 0.3239
41.1333 0.3238
41.1500 0.3238
41.1667 0.3237
41.1833 0.3237
41.2000 0.3236
41.2167 0.3236
41.2333 0.3236
41.2500 0.3235
41.2667 0.3235
41.2833 0.3234
41.3000 0.3234
41.3167 0.3233
41.3333 0.3233
41.3500 0.3233
41.3667 0.3232
41.3833 0.3232
41.4000 0.3231
41.4167 0.3231
41.4333 0.3230
41.4500 0.3230
41.4667 0.3230
41.4833 0.3280
41.5000 0.3330
41.5167 0.3380
41.5333 0.3430
41.5500 0.3480
41.5667 0.3530
41.5833 0.3580
41.6000 0.3630
41.6167 0.3680
41.6333 0.3730
41.6500 0.3780
41.6667 0.3830
41.6833 0.3880
41.7000 0.3930
41.7167 0.3980
41.7333 0.4030
41.7500 0.4080
41.7667 0.4130
41.7833 0.4180
41.8000 0.4230
41.8167 0.4280
41.8333 0.4330
41.8500 0.4380
41.8667 0.4430
41.8833 0.4480
41.9000 0.4530
41.9167 0.4580
41.9333 0.4630
41.9500 0.4680
41.9667 0.4730
41.9833 0.3216
42.0000 0.3216
42.0167 0.3215
42.0333 0.3215
42.0500 0.3215
42.0667 0.3214
42.0833 0.3214
42.1000 0.3213
42.1167 0.3213
42.1333 0.3212
42.1500 0.3212
42.1667 0.3212
42.1833 0.3211
42.2000 0.3211
42.2167 0.3210
42.2333 0.3210
42.2500 0.3209
42.2667 0.3209
42.2833 0.3209
42.3000 0.3208
42.3167 0.3208
42.3333 0.3207
42.3500 0.3207
42.3667 0.3206
42.3833 0.3206
42.4000 0.3206
42.4167 0.3205
42.4333 0.3205
42.4500 0.3204
42.4667 0.3204
42.4833 0.3254
42.5000 0.3304
42.5167 0.3354
42.5333 0.3404
42.5500 0.3454
42.5667 0.3504
42.5833 0.3554
42.6000 0.3604
42.6167 0.3654
42.6333 0.3704
42.6500 0.3754
42.6667 0.3804
42.6833 0.3854
42.7000 0.3904
42.7167 0.3954
42.7333 0.4004
42.7500 0.4054
42.7667 0.4104
42.7833 0.4154
42.8000 0.4204
42.8167 0.4254
42.8333 0.4304
42.8500 0.4354
42.8667 0.4404
42.8833 0.4454
42.9000 0.4504
42.9167 0.4554
42.9333 0.4604
42.9500 0.4654
42.9667 0.4704
42.9833 0.3191
43.0000 0.3190
43.0167 0.3190
43.0333 0.3189
43.0500 0.3189
43.0667 0.3188
43.0833 0.3188
43.1000 0.3188
43.1167 0.3187
43.1333 0.3187
43.1500 0.3186
43.1667 0.3186
43.1833 0.3186
43.2000 0.3185
43.2167 0.3185
43.2333 0.3184
43.2500 0.3184
43.2667 0.3183
43.2833 0.3183
43.3000 0.3183
43.3167 0.3182
43.3333 0.3182
43.3500 0.3181
43.3667 0.3181
43.3833 0.3180
43.4000 0.3180
43.4167 0.3180
43.4333 0.3179
43.4500 0.3179
43.4667 0.3178
43.4833 0.3228
43.5000 0.3278
43.5167 0.3328
43.5333 0.3378
43.5500 0.3428
43.5667 0.3478
43.5833 0.3528
43.6000 0.3578
43.6167 0.3628
43.6333 0.3678
43.6500 0.3728
43.6667 0.3778
43.6833 0.3828
43.7000 0.3878
43.7167 0.3928
43.7333 0.3978
43.7500 0.4028
43.7667 0.4078
43.7833 0.4128
43.8000 0.4178
43.8167 0.4228
43.8333 0.4278
43.8500 0.4328
43.8667 0.4378
43.8833 0.4428
43.9000 0.4478
43.9167 0.4528
43.9333 0.4578
43.9500 0.4628
43.9667 0.4678
43.9833 0.3165
44.0000 0.3165
44.0167 0.3164
44.0333 0.3164
44.0500 0.3163
44.0667 0.3163
44.0833 0.3163
44.1000 0.3162
44.1167 0.3162
44.1333 0.3161
44.1500 0.3161
44.1667 0.3161
44.1833 0.3160
44.2000 0.3160
44.2167 0.3159
44.2333 0.3159
44.2500 0.3158
44.2667 0.3158
44.2833 0.3158
44.3000 0.3157
44.3167 0.3157
44.3333 0.3156
44.3500 0.3156
44.3667 0.3155
44.3833 0.3155
44.4000 0.3155
44.4167 0.3154
44.4333 0.3154
44.4500 0.3153
44.4667 0.3153
44.4833 0.3203
44.5000 0.3253
44.5167 0.3303
44.5333 0.3353
44.5500 0.3403
44.5667 0.3453
44.5833 0.3503
44.6000 0.3553
44.6167 0.3603
44.6333 0.3653
44.6500 0.3703
44.6667 0.3753
44.6833 0.3803
44.7000 0.3853
44.7167 0.3903
44.7333 0.3953
44.7500 0.4003
44.7667 0.4053
44.7833 0.4103
44.8000 0.4153
44.8167 0.4203
44.8333 0.4253
44.8500 0.4303
44.8667 0.4353
44.8833 0.4403
44.9000 0.4453
44.9167 0.4503
44.9333 0.4553
44.9500 0.4603
44.9667 0.4653
44.9833 0.3140
45.0000 0.3140
45.0167 0.3139
45.0333 0.3139
45.0500 0.3138
45.0667 0.3138
45.0833 0.3137
45.1000 0.3137
45.1167 0.3137
45.1333 0.3136
45.1500 0.3136
45.1667 0.3135
45.1833 0.3135
45.2000 0.3135
45.2167 0.3134
45.2333 0.3134
45.2500 0.3133
45.2667 0.3133
45.2833 0.3132
45.3000 0.3132
45.3167 0.3132
45.3333 0.3131
45.3500 0.3131
45.3667 0.3130
45.3833 0.3130
45.4000 0.3130
45.4167 0.3129
45.4333 0.3129
45.4500 0.3128
45.4667 0.3128
45.4833 0.3178
45.5000 0.3228
45.5167 0.3278
45.5333 0.3328
45.5500 0.3378
45.5667 0.3428
45.5833 0.3478
45.6000 0.3528
45.6167 0.3578
45.6333 0.3628
45.6500 0.3678
45.6667 0.3728
45.6833 0.3778
45.7000 0.3828
45.7167 0.3878
45.7333 0.3928
45.7500 0.3978
45.7667 0.4028
45.7833 0.4078
45.8000 0.4128
45.8167 0.4178
45.8333 0.4228
45.8500 0.4278
45.8667 0.4328
45.8833 0.4378
45.9000 0.4428
45.9167 0.4478
45.9333 0.4528
45.9500 0.4578
45.9667 0.4628
45.9833 0.3115
46.0000 0.3115
46.0167 0.3114
46.0333 0.3114
46.0500 0.3113
46.0667 0.3113
46.0833 0.3112
46.1000 0.3112
46.1167 0.3112
46.1333 0.3111
46.1500 0.3111
46.1667 0.3110
46.1833 0.3110
46.2000 0.3110
46.2167 0.3109
46.2333 0.3109
46.2500 0.3108
46.2667 0.3108
46.2833 0.3107
46.3000 0.3107
46.3167 0.3107
46.3333 0.3106
46.3500 0.3106
46.3667 0.3105
46.3833 0.3105
46.4000 0.3105
46.4167 0.3104
46.4333 0.3104
46.4500 0.3103
46.4667 0.3103
46.4833 0.3153
46.5000 0.3203
46.5167 0.3253
46.5333 0.3303
46.5500 0.3353
46.5667 0.3403
46.5833 0.3453
46.6000 0.3503
46.6167 0.3553
46.6333 0.3603
46.6500 0.3653
46.6667 0.3703
46.6833 0.3753
46.7000 0.3803
46.7167 0.3853
46.7333 0.3903
46.7500 0.3953
46.7667 0.4003
46.7833 0.4053
46.8000 0.4103
46.8167 0.4153
46.8333 0.4203
46.8500 0.4253
46.8667 0.4303
46.8833 0.4353
46.9000 0.4403
46.9167 0.4453
46.9333 0.4503
46.9500 0.4553
46.9667 0.4603
46.9833 0.3090
47.0000 0.3090
47.0167 0.3089
47.0333 0.3089
47.0500 0.3088
47.0667 0.3088
47.0833 0.3088
47.1000 0.3087
47.1167 0.3087
47.1333 0.3086
47.1500 0.3086
47.1667 0.3086
47.1833 0.3085
47.2000 0.3085
47.2167 0.3084
47.2333 0.3084
47.2500 0.3084
47.2667 0.3083
47.2833 0.3083
47.3000 0.3082
47.3167 0.3082
47.3333 0.3081
47.3500 0.3081
47.3667 0.3081
47.3833 0.3080
47.4000 0.3080
47.4167 0.3079
47.4333 0.3079
47.4500 0.3079
47.4667 0.3078
47.4833 0.3128
47.5000 0.3178
47.5167 0.3228
47.5333 0.3278
47.5500 0.3328
47.5667 0.3378
47.5833 0.3428
47.6000 0.3478
47.6167 0.3528
47.6333 0.3578
47.6500 0.3628
47.6667 0.3678
47.6833 0.3728
47.7000 0.3778
47.7167 0.3828
47.7333 0.3878
47.7500 0.3928
47.7667 0.3978
47.7833 0.4028
47.8000 0.4078
47.8167 0.4128
47.8333 0.4178
47.8500 0.4228
47.8667 0.4278
47.8833 0.4328
47.9000 0.4378
47.9167 0.4428
47.9333 0.4478
47.9500 0.4528
47.9667 0.4578
47.9833 0.3066
48.0000 0.3065
48.0167 0.3065
48.0333 0.3064
48.0500 0.3064
48.0667 0.3063
48.0833 0.3063
48.1000 0.3063
48.1167 0.3062
48.1333 0.3062
48.1500 0.3061
48.1667 0.3061
48.1833 0.3061
48.2000 0.3060
48.2167 0.3060
48.2333 0.3059
48.2500 0.3059
48.2667 0.3059
48.2833 0.3058
48.3000 0.3058
48.3167 0.3057
48.3333 0.3057
48.3500 0.3057
48.3667 0.3056
48.3833 0.3056
48.4000 0.3055
48.4167 0.3055
48.4333 0.3054
48.4500 0.3054
48.4667 0.3054
48.4833 0.3104
48.5000 0.3154
48.5167 0.3204
48.5333 0.3254
48.5500 0.3304
48.5667 0.3354
48.5833 0.3404
48.6000 0.3454
48.6167 0.3504
48.6333 0.3554
48.6500 0.3604
48.6667 0.3654
48.6833 0.3704
48.7000 0.3754
48.7167 0.3804
48.7333 0.3854
48.7500 0.3904
48.7667 0.3954
48.7833 0.4004
48.8000 0.4054
48.8167 0.4104
48.8333 0.4154
48.8500 0.4204
48.8667 0.4254
48.8833 0.4304
48.9000 0.4354
48.9167 0.4404
48.9333 0.4454
48.9500 0.4504
48.9667 0.4554
48.9833 0.3041
49.0000 0.3041
49.0167 0.3040
49.0333 0.3040
49.0500 0.3039
49.0667 0.3039
49.0833 0.3039
49.1000 0.3038
49.1167 0.3038
49.1333 0.3037
49.1500 0.3037
49.1667 0.3037
49.1833 0.3036
49.2000 0.3036
49.2167 0.3035
49.2333 0.3035
49.2500 0.3035
49.2667 0.3034
49.2833 0.3034
49.3000 0.3033
49.3167 0.3033
49.3333 0.3033
49.3500 0.3032
49.3667 0.3032
49.3833 0.3031
49.4000 0.3031
49.4167 0.3031
49.4333 0.3030
49.4500 0.3030
49.4667 0.3029
49.4833 0.3079
49.5000 0.3129
49.5167 0.3179
49.5333 0.3229
49.5500 0.3279
49.5667 0.3329
49.5833 0.3379
49.6000 0.3429
49.6167 0.3479
49.6333 0.3529
49.6500 0.3579
49.6667 0.3629
49.6833 0.3679
49.7000 0.3729
49.7167 0.3779
49.7333 0.3829
49.7500 0.3879
49.7667 0.3929
49.7833 0.3979
49.8000 0.4029
49.8167 0.4079
49.8333 0.4129
49.8500 0.4179
49.8667 0.4229
49.8833 0.4279
49.9000 0.4329
49.9167 0.4379
49.9333 0.4429
49.9500 0.4479
49.9667 0.4529
49.9833 0.3017
50.0000 0.3016
50.0167 0.3016
50.0333 0.3016
50.0500 0.3015
50.0667 0.3015
50.0833 0.3014
50.1000 0.3014
50.1167 0.3014
50.1333 0.3013
50.1500 0.3013
50.1667 0.3012
50.1833 0.3012
50.2000 0.3012
50.2167 0.3011
50.2333 0.3011
50.2500 0.3010
50.2667 0.3010
50.2833 0.3010
50.3000 0.3009
50.3167 0.3009
50.3333 0.3008
50.3500 0.3008
50.3667 0.3008
50.3833 0.3007
50.4000 0.3007
50.4167 0.3006
50.4333 0.3006
50.4500 0.3006
50.4667 0.3005
50.4833 0.3055
50.5000 0.3105
50.5167 0.3155
50.5333 0.3205
50.5500 0.3255
50.5667 0.3305
50.5833 0.3355
50.6000 0.3405
50.6167 0.3455
50.6333 0.3505
50.6500 0.3555
50.6667 0.3605
50.6833 0.3655
50.7000 0.3705
50.7167 0.3755
50.7333 0.3805
50.7500 0.3855
50.7667 0.3905
50.7833 0.3955
50.8000 0.4005
50.8167 0.4055
50.8333 0.4105
50.8500 0.4155
50.8667 0.4205
50.8833 0.4255
50.9000 0.4305
50.9167 0.4355
50.9333 0.4405
50.9500 0.4455
50.9667 0.4505
50.9833 0.2993
51.0000 0.2992
51.0167 0.2992
51.0333 0.2992
51.0500 0.2991
51.0667 0.2991
51.0833 0.2990
51.1000 0.2990
51.1167 0.2990
51.1333 0.2989
51.1500 0.2989
51.1667 0.2988
51.1833 0.2988
51.2000 0.2988
51.2167 0.2987
51.2333 0.2987
51.2500 0.2986
51.2667 0.2986
51.2833 0.2986
51.3000 0.2985
51.3167 0.2985
51.3333 0.2984
51.3500 0.2984
51.3667 0.2984
51.3833 0.2983
51.4000 0.2983
51.4167 0.2982
51.4333 0.2982
51.4500 0.2982
51.4667 0.2981
51.4833 0.3031
51.5000 0.3081
51.5167 0.3131
51.5333 0.3181
51.5500 0.3231
51.5667 0.3281
51.5833 0.3331
51.6000 0.3381
51.6167 0.3431
51.6333 0.3481
51.6500 0.3531
51.6667 0.3581
51.6833 0.3631
51.7000 0.3681
51.7167 0.3731
51.7333 0.3781
51.7500 0.3831
51.7667 0.3881
51.7833 0.3931
51.8000 0.3981
51.8167 0.4031
51.8333 0.4081
51.8500 0.4131
51.8667 0.4181
51.8833 0.4231
51.9000 0.4281
51.9167 0.4331
51.9333 0.4381
51.9500 0.4431
51.9667 0.4481
51.9833 0.2969
52.0000 0.2969
52.0167 0.2968
52.0333 0.2968
52.0500 0.2967
52.0667 0.2967
52.0833 0.2967
52.1000 0.2966
52.1167 0.2966
52.1333 0.2965
52.1500 0.2965
52.1667 0.2965
52.1833 0.2964
52.2000 0.2964
52.2167 0.2963
52.2333 0.2963
52.2500 0.2963
52.2667 0.2962
52.2833 0.2962
52.3000 0.2961
52.3167 0.2961
52.3333 0.2961
52.3500 0.2960
52.3667 0.2960
52.3833 0.2959
52.4000 0.2959
52.4167 0.2959
52.4333 0.2958
52.4500 0.2958
52.4667 0.2957
52.4833 0.3007
52.5000 0.3057
52.5167 0.3107
52.5333 0.3157
52.5500 0.3207
52.5667 0.3257
52.5833 0.3307
52.6000 0.3357
52.6167 0.3407
52.6333 0.3457
52.6500 0.3507
52.6667 0.3557
52.6833 0.3607
52.7000 0.3657
52.7167 0.3707
52.7333 0.3757
52.7500 0.3807
52.7667 0.3857
52.7833 0.3907
52.8000 0.3957
52.8167 0.4007
52.8333 0.4057
52.8500 0.4107
52.8667 0.4157
52.8833 0.4207
52.9000 0.4257
52.9167 0.4307
52.9333 0.4357
52.9500 0.4407
52.9667 0.4457
52.9833 0.2945
53.0000 0.2945
53.0167 0.2945
53.0333 0.2944
53.0500 0.2944
53.0667 0.2943
53.0833 0.2943
53.1000 0.2943
53.1167 0.2942
53.1333 0.2942
53.1500 0.2941
53.1667 0.2941
53.1833 0.2941
53.2000 0.2940
53.2167 0.2940
53.2333 0.2939
53.2500 0.2939
53.2667 0.2939
53.2833 0.2938
53.3000 0.2938
53.3167 0.2937
53.3333 0.2937
53.3500 0.2937
53.3667 0.2936
53.3833 0.2936
53.4000 0.2935
53.4167 0.2935
53.4333 0.2935
53.4500 0.2934
53.4667 0.2934
53.4833 0.2984
53.5000 0.3034
53.5167 0.3084
53.5333 0.3134
53.5500 0.3184
53.5667 0.3234
53.5833 0.3284
53.6000 0.3334
53.6167 0.3384
53.6333 0.3434
53.6500 0.3484
53.6667 0.3534
53.6833 0.3584
53.7000 0.3634
53.7167 0.3684
53.7333 0.3734
53.7500 0.3784
53.7667 0.3834
53.7833 0.3884
53.8000 0.3934
53.8167 0.3984
53.8333 0.4034
53.8500 0.4084
53.8667 0.4134
53.8833 0.4184
53.9000 0.4234
53.9167 0.4284
53.9333 0.4334
53.9500 0.4384
53.9667 0.4434
53.9833 0.2922
54.0000 0.2921
54.0167 0.2921
54.0333 0.2921
54.0500 0.2920
54.0667 0.2920
54.0833 0.2919
54.1000 0.2919
54.1167 0.2919
54.1333 0.2918
54.1500 0.2918
54.1667 0.2918
54.1833 0.2917
54.2000 0.2917
54.2167 0.2916
54.2333 0.2916
54.2500 0.2916
54.2667 0.2915
54.2833 0.2915
54.3000 0.2914
54.3167 0.2914
54.3333 0.2914
54.3500 0.2913
54.3667 0.2913
54.3833 0.2912
54.4000 0.2912
54.4167 0.2912
54.4333 0.2911
54.4500 0.2911
54.4667 0.2911
54.4833 0.2961
54.5000 0.3011
54.5167 0.3061
54.5333 0.3111
54.5500 0.3161
54.5667 0.3211
54.5833 0.3261
54.6000 0.3311
54.6167 0.3361
54.6333 0.3411
54.6500 0.3461
54.6667 0.3511
54.6833 0.3561
54.7000 0.3611
54.7167 0.3661
54.7333 0.3711
54.7500 0.3761
54.7667 0.3811
54.7833 0.3861
54.8000 0.3911
54.8167 0.3961
54.8333 0.4011
54.8500 0.4061
54.8667 0.4111
54.8833 0.4161
54.9000 0.4211
54.9167 0.4261
54.9333 0.4311
54.9500 0.4361
54.9667 0.4411
54.9833 0.2899
55.0000 0.2898
55.0167 0.2898
55.0333 0.2897
55.0500 0.2897
55.0667 0.2897
55.0833 0.2896
55.1000 0.2896
55.1167 0.2895
55.1333 0.2895
55.1500 0.2895
55.1667 0.2894
55.1833 0.2894
55.2000 0.2894
55.2167 0.2893
55.2333 0.2893
55.2500 0.2892
55.2667 0.2892
55.2833 0.2892
55.3000 0.2891
55.3167 0.2891
55.3333 0.2890
55.3500 0.2890
55.3667 0.2890
55.3833 0.2889
55.4000 0.2889
55.4167 0.2889
55.4333 0.2888
55.4500 0.2888
55.4667 0.2887
55.4833 0.2937
55.5000 0.2987
55.5167 0.3037
55.5333 0.3087
55.5500 0.3137
55.5667 0.3187
55.5833 0.3237
55.6000 0.3287
55.6167 0.3337
55.6333 0.3387
55.6500 0.3437
55.6667 0.3487
55.6833 0.3537
55.7000 0.3587
55.7167 0.3637
55.7333 0.3687
55.7500 0.3737
55.7667 0.3787
55.7833 0.3837
55.8000 0.3887
55.8167 0.3937
55.8333 0.3987
55.8500 0.4037
55.8667 0.4087
55.8833 0.4137
55.9000 0.4187
55.9167 0.4237
55.9333 0.4287
55.9500 0.4337
55.9667 0.4387
55.9833 0.2875
56.0000 0.2875
56.0167 0.2875
56.0333 0.2874
56.0500 0.2874
56.0667 0.2874
56.0833 0.2873
56.1000 0.2873
56.1167 0.2872
56.1333 0.2872
56.1500 0.2872
56.1667 0.2871
56.1833 0.2871
56.2000 0.2870
56.2167 0.2870
56.2333 0.2870
56.2500 0.2869
56.2667 0.2869
56.2833 0.2869
56.3000 0.2868
56.3167 0.2868
56.3333 0.2867
56.3500 0.2867
56.3667 0.2867
56.3833 0.2866
56.4000 0.2866
56.4167 0.2866
56.4333 0.2865
56.4500 0.2865
56.4667 0.2864
56.4833 0.2914
56.5000 0.2964
56.5167 0.3014
56.5333 0.3064
56.5500 0.3114
56.5667 0.3164
56.5833 0.3214
56.6000 0.3264
56.6167 0.3314
56.6333 0.3364
56.6500 0.3414
56.6667 0.3464
56.6833 0.3514
56.7000 0.3564
56.7167 0.3614
56.7333 0.3664
56.7500 0.3714
56.7667 0.3764
56.7833 0.3814
56.8000 0.3864
56.8167 0.3914
56.8333 0.3964
56.8500 0.4014
56.8667 0.4064
56.8833 0.4114
56.9000 0.4164
56.9167 0.4214
56.9333 0.4264
56.9500 0.4314
56.9667 0.4364
56.9833 0.2853
57.0000 0.2852
57.0167 0.2852
57.0333 0.2851
57.0500 0.2851
57.0667 0.2851
57.0833 0.2850
57.1000 0.2850
57.1167 0.2850
57.1333 0.2849
57.1500 0.2849
57.1667 0.2848
57.1833 0.2848
57.2000 0.2848
57.2167 0.2847
57.2333 0.2847
57.2500 0.2846
57.2667 0.2846
57.2833 0.2846
57.3000 0.2845
57.3167 0.2845
57.3333 0.2845
57.3500 0.2844
57.3667 0.2844
57.3833 0.2843
57.4000 0.2843
57.4167 0.2843
57.4333 0.2842
57.4500 0.2842
57.4667 0.2842
57.4833 0.2892
57.5000 0.2942
57.5167 0.2992
57.5333 0.3042
57.5500 0.3092
57.5667 0.3142
57.5833 0.3192
57.6000 0.3242
57.6167 0.3292
57.6333 0.3342
57.6500 0.3392
57.6667 0.3442
57.6833 0.3492
57.7000 0.3542
57.7167 0.3592
57.7333 0.3642
57.7500 0.3692
57.7667 0.3742
57.7833 0.3792
57.8000 0.3842
57.8167 0.3892
57.8333 0.3942
57.8500 0.3992
57.8667 0.4042
57.8833 0.4092
57.9000 0.4142
57.9167 0.4192
57.9333 0.4242
57.9500 0.4292
57.9667 0.4342
57.9833 0.2830
58.0000 0.2829
58.0167 0.2829
58.0333 0.2829
58.0500 0.2828
58.0667 0.2828
58.0833 0.2828
58.1000 0.2827
58.1167 0.2827
58.1333 0.2826
58.1500 0.2826
58.1667 0.2826
58.1833 0.2825
58.2000 0.2825
58.2167 0.2825
58.2333 0.2824
58.2500 0.2824
58.2667 0.2823
58.2833 0.2823
58.3000 0.2823
58.3167 0.2822
58.3333 0.2822
58.3500 0.2822
58.3667 0.2821
58.3833 0.2821
58.4000 0.2820
58.4167 0.2820
58.4333 0.2820
58.4500 0.2819
58.4667 0.2819
58.4833 0.2869
58.5000 0.2919
58.5167 0.2969
58.5333 0.3019
58.5500 0.3069
58.5667 0.3119
58.5833 0.3169
58.6000 0.3219
58.6167 0.3269
58.6333 0.3319
58.6500 0.3369
58.6667 0.3419
58.6833 0.3469
58.7000 0.3519
58.7167 0.3569
58.7333 0.3619
58.7500 0.3669
58.7667 0.3719
58.7833 0.3769
58.8000 0.3819
58.8167 0.3869
58.8333 0.3919
58.8500 0.3969
58.8667 0.4019
58.8833 0.4069
58.9000 0.4119
58.9167 0.4169
58.9333 0.4219
58.9500 0.4269
58.9667 0.4319
58.9833 0.2807
59.0000 0.2807
59.0167 0.2807
59.0333 0.2806
59.0500 0.2806
59.0667 0.2805
59.0833 0.2805
59.1000 0.2805
59.1167 0.2804
59.1333 0.2804
59.1500 0.2804
59.1667 0.2803
59.1833 0.2803
59.2000 0.2802
59.2167 0.2802
59.2333 0.2802
59.2500 0.2801
59.2667 0.2801
59.2833 0.2801
59.3000 0.2800
59.3167 0.2800
59.3333 0.2799
59.3500 0.2799
59.3667 0.2799
59.3833 0.2798
59.4000 0.2798
59.4167 0.2798
59.4333 0.2797
59.4500 0.2797
59.4667 0.2796
59.4833 0.2846
59.5000 0.2896
59.5167 0.2946
59.5333 0.2996
59.5500 0.3046
59.5667 0.3096
59.5833 0.3146
59.6000 0.3196
59.6167 0.3246
59.6333 0.3296
59.6500 0.3346
59.6667 0.3396
59.6833 0.3446
59.7000 0.3496
59.7167 0.3546
59.7333 0.3596
59.7500 0.3646
59.7667 0.3696
59.7833 0.3746
59.8000 0.3796
59.8167 0.3846
59.8333 0.3896
59.8500 0.3946
59.8667 0.3996
59.8833 0.4046
59.9000 0.4096
59.9167 0.4146
59.9333 0.4196
59.9500 0.4246
59.9667 0.4296
59.9833 0.2785
60.0000 0.2785
60.0167 0.2784
60.0333 0.2784
60.0500 0.2783
60.0667 0.2783
60.0833 0.2783
60.1000 0.2782
60.1167 0.2782
60.1333 0.2782
60.1500 0.2781
60.1667 0.2781
60.1833 0.2780
60.2000 0.2780
60.2167 0.2780
60.2333 0.2779
60.2500 0.2779
60.2667 0.2779
60.2833 0.2778
60.3000 0.2778
60.3167 0.2777
60.3333 0.2777
60.3500 0.2777
60.3667 0.2776
60.3833 0.2776
60.4000 0.2776
60.4167 0.2775
60.4333 0.2775
60.4500 0.2775
60.4667 0.2774
60.4833 0.2824
60.5000 0.2874
60.5167 0.2924
60.5333 0.2974
60.5500 0.3024
60.5667 0.3074
60.5833 0.3124
60.6000 0.3174
60.6167 0.3224
60.6333 0.3274
60.6500 0.3324
60.6667 0.3374
60.6833 0.3424
60.7000 0.3474
60.7167 0.3524
60.7333 0.3574
60.7500 0.3624
60.7667 0.3674
60.7833 0.3724
60.8000 0.3774
60.8167 0.3824
60.8333 0.3874
60.8500 0.3924
60.8667 0.3974
60.8833 0.4024
60.9000 0.4074
60.9167 0.4124
60.9333 0.4174
60.9500 0.4224
60.9667 0.4274
60.9833 0.2763
61.0000 0.2762
61.0167 0.2762
61.0333 0.2762
61.0500 0.2761
61.0667 0.2761
61.0833 0.2760
61.1000 0.2760
61.1167 0.2760
61.1333 0.2759
61.1500 0.2759
61.1667 0.2759
61.1833 0.2758
61.2000 0.2758
61.2167 0.2758
61.2333 0.2757
61.2500 0.2757
61.2667 0.2756
61.2833 0.2756
61.3000 0.2756
61.3167 0.2755
61.3333 0.2755
61.3500 0.2755
61.3667 0.2754
61.3833 0.2754
61.4000 0.2754
61.4167 0.2753
61.4333 0.2753
61.4500 0.2752
61.4667 0.2752
61.4833 0.2802
61.5000 0.2852
61.5167 0.2902
61.5333 0.2952
61.5500 0.3002
61.5667 0.3052
61.5833 0.3102
61.6000 0.3152
61.6167 0.3202
61.6333 0.3252
61.6500 0.3302
61.6667 0.3352
61.6833 0.3402
61.7000 0.3452
61.7167 0.3502
61.7333 0.3552
61.7500 0.3602
61.7667 0.3652
61.7833 0.3702
61.8000 0.3752
61.8167 0.3802
61.8333 0.3852
61.8500 0.3902
61.8667 0.3952
61.8833 0.4002
61.9000 0.4052
61.9167 0.4102
61.9333 0.4152
61.9500 0.4202
61.9667 0.4252
61.9833 0.2741
62.0000 0.2740
62.0167 0.2740
62.0333 0.2740
62.0500 0.2739
62.0667 0.2739
62.0833 0.2739
62.1000 0.2738
62.1167 0.2738
62.1333 0.2737
62.1500 0.2737
62.1667 0.2737
62.1833 0.2736
62.2000 0.2736
62.2167 0.2736
62.2333 0.2735
62.2500 0.2735
62.2667 0.2734
62.2833 0.2734
62.3000 0.2734
62.3167 0.2733
62.3333 0.2733
62.3500 0.2733
62.3667 0.2732
62.3833 0.2732
62.4000 0.2732
62.4167 0.2731
62.4333 0.2731
62.4500 0.2730
62.4667 0.2730
62.4833 0.2780
62.5000 0.2830
62.5167 0.2880
62.5333 0.2930
62.5500 0.2980
62.5667 0.3030
62.5833 0.3080
62.6000 0.3130
62.6167 0.3180
62.6333 0.3230
62.6500 0.3280
62.6667 0.3330
62.6833 0.3380
62.7000 0.3430
62.7167 0.3480
62.7333 0.3530
62.7500 0.3580
62.7667 0.3630
62.7833 0.3680
62.8000 0.3730
62.8167 0.3780
62.8333 0.3830
62.8500 0.3880
62.8667 0.3930
62.8833 0.3980
62.9000 0.4030
62.9167 0.4080
62.9333 0.4130
62.9500 0.4180
62.9667 0.4230
62.9833 0.2719
63.0000 0.2718
63.0167 0.2718
63.0333 0.2718
63.0500 0.2717
63.0667 0.2717
63.0833 0.2717
63.1000 0.2716
63.1167 0.2716
63.1333 0.2716
63.1500 0.2715
63.1667 0.2715
63.1833 0.2715
63.2000 0.2714
63.2167 0.2714
63.2333 0.2713
63.2500 0.2713
63.2667 0.2713
63.2833 0.2712
63.3000 0.2712
63.3167 0.2712
63.3333 0.2711
63.3500 0.2711
63.3667 0.2711
63.3833 0.2710
63.4000 0.2710
63.4167 0.2709
63.4333 0.2709
63.4500 0.2709
63.4667 0.2708
63.4833 0.2758
63.5000 0.2808
63.5167 0.2858
63.5333 0.2908
63.5500 0.2958
63.5667 0.3008
63.5833 0.3058
63.6000 0.3108
63.6167 0.3158
63.6333 0.3208
63.6500 0.3258
63.6667 0.3308
63.6833 0.3358
63.7000 0.3408
63.7167 0.3458
63.7333 0.3508
63.7500 0.3558
63.7667 0.3608
63.7833 0.3658
63.8000 0.3708
63.8167 0.3758
63.8333 0.3808
63.8500 0.3858
63.8667 0.3908
63.8833 0.3958
63.9000 0.4008
63.9167 0.4058
63.9333 0.4108
63.9500 0.4158
63.9667 0.4208
63.9833 0.2697
64.0000 0.2697
64.0167 0.2696
64.0333 0.2696
64.0500 0.2696
64.0667 0.2695
64.0833 0.2695
64.1000 0.2695
64.1167 0.2694
64.1333 0.2694
64.1500 0.2694
64.1667 0.2693
64.1833 0.2693
64.2000 0.2693
64.2167 0.2692
64.2333 0.2692
64.2500 0.2691
64.2667 0.2691
64.2833 0.2691
64.3000 0.2690
64.3167 0.2690
64.3333 0.2690
64.3500 0.2689
64.3667 0.2689
64.3833 0.2689
64.4000 0.2688
64.4167 0.2688
64.4333 0.2687
64.4500 0.2687
64.4667 0.2687
64.4833 0.2737
64.5000 0.2787
64.5167 0.2837
64.5333 0.2887
64.5500 0.2937
64.5667 0.2987
64.5833 0.3037
64.6000 0.3087
64.6167 0.3137
64.6333 0.3187
64.6500 0.3237
64.6667 0.3287
64.6833 0.3337
64.7000 0.3387
64.7167 0.3437
64.7333 0.3487
64.7500 0.3537
64.7667 0.3587
64.7833 0.3637
64.8000 0.3687
64.8167 0.3737
64.8333 0.3787
64.8500 0.3837
64.8667 0.3887
64.8833 0.3937
64.9000 0.3987
64.9167 0.4037
64.9333 0.4087
64.9500 0.4137
64.9667 0.4187
64.9833 0.2676
65.0000 0.2675
65.0167 0.2675
65.0333 0.2675
65.0500 0.2674
65.0667 0.2674
65.0833 0.2674
65.1000 0.2673
65.1167 0.2673
65.1333 0.2672
65.1500 0.2672
65.1667 0.2672
65.1833 0.2671
65.2000 0.2671
65.2167 0.2671
65.2333 0.2670
65.2500 0.2670
65.2667 0.2670
65.2833 0.2669
65.3000 0.2669
65.3167 0.2669
65.3333 0.2668
65.3500 0.2668
65.3667 0.2668
65.3833 0.2667
65.4000 0.2667
65.4167 0.2666
65.4333 0.2666
65.4500 0.2666
65.4667 0.2665
65.4833 0.2715
65.5000 0.2765
65.5167 0.2815
65.5333 0.2865
65.5500 0.2915
65.5667 0.2965
65.5833 0.3015
65.6000 0.3065
65.6167 0.3115
65.6333 0.3165
65.6500 0.3215
65.6667 0.3265
65.6833 0.3315
65.7000 0.3365
65.7167 0.3415
65.7333 0.3465
65.7500 0.3515
65.7667 0.3565
65.7833 0.3615
65.8000 0.3665
65.8167 0.3715
65.8333 0.3765
65.8500 0.3815
65.8667 0.3865
65.8833 0.3915
65.9000 0.3965
65.9167 0.4015
65.9333 0.4065
65.9500 0.4115
65.9667 0.4165
65.9833 0.2654
66.0000 0.2654
66.0167 0.2654
66.0333 0.2653
66.0500 0.2653
66.0667 0.2653
66.0833 0.2652
66.1000 0.2652
66.1167 0.2652
66.1333 0.2651
66.1500 0.2651
66.1667 0.2650
66.1833 0.2650
66.2000 0.2650
66.2167 0.2649
66.2333 0.2649
66.2500 0.2649
66.2667 0.2648
66.2833 0.2648
66.3000 0.2648
66.3167 0.2647
66.3333 0.2647
66.3500 0.2647
66.3667 0.2646
66.3833 0.2646
66.4000 0.2646
66.4167 0.2645
66.4333 0.2645
66.4500 0.2644
66.4667 0.2644
66.4833 0.2694
66.5000 0.2744
66.5167 0.2794
66.5333 0.2844
66.5500 0.2894
66.5667 0.2944
66.5833 0.2994
66.6000 0.3044
66.6167 0.3094
66.6333 0.3144
66.6500 0.3194
66.6667 0.3244
66.6833 0.3294
66.7000 0.3344
66.7167 0.3394
66.7333 0.3444
66.7500 0.3494
66.7667 0.3544
66.7833 0.3594
66.8000 0.3644
66.8167 0.3694
66.8333 0.3744
66.8500 0.3794
66.8667 0.3844
66.8833 0.3894
66.9000 0.3944
66.9167 0.3994
66.9333 0.4044
66.9500 0.4094
66.9667 0.4144
66.9833 0.2633
67.0000 0.2633
67.0167 0.2633
67.0333 0.2632
67.0500 0.2632
67.0667 0.2631
67.0833 0.2631
67.1000 0.2631
67.1167 0.2630
67.1333 0.2630
67.1500 0.2630
67.1667 0.2629
67.1833 0.2629
67.2000 0.2629
67.2167 0.2628
67.2333 0.2628
67.2500 0.2628
67.2667 0.2627
67.2833 0.2627
67.3000 0.2627
67.3167 0.2626
67.3333 0.2626
67.3500 0.2626
67.3667 0.2625
67.3833 0.2625
67.4000 0.2624
67.4167 0.2624
67.4333 0.2624
67.4500 0.2623
67.4667 0.2623
67.4833 0.2673
67.5000 0.2723
67.5167 0.2773
67.5333 0.2823
67.5500 0.2873
67.5667 0.2923
67.5833 0.2973
67.6000 0.3023
67.6167 0.3073
67.6333 0.3123
67.6500 0.3173
67.6667 0.3223
67.6833 0.3273
67.7000 0.3323
67.7167 0.3373
67.7333 0.3423
67.7500 0.3473
67.7667 0.3523
67.7833 0.3573
67.8000 0.3623
67.8167 0.3673
67.8333 0.3723
67.8500 0.3773
67.8667 0.3823
67.8833 0.3873
67.9000 0.3923
67.9167 0.3973
67.9333 0.4023
67.9500 0.4073
67.9667 0.4123
67.9833 0.2612
68.0000 0.2612
68.0167 0.2612
68.0333 0.2611
68.0500 0.2611
68.0667 0.2611
68.0833 0.2610
68.1000 0.2610
68.1167 0.2609
68.1333 0.2609
68.1500 0.2609
68.1667 0.2608
68.1833 0.2608
68.2000 0.2608
68.2167 0.2607
68.2333 0.2607
68.2500 0.2607
68.2667 0.2606
68.2833 0.2606
68.3000 0.2606
68.3167 0.2605
68.3333 0.2605
68.3500 0.2605
68.3667 0.2604
68.3833 0.2604
68.4000 0.2604
68.4167 0.2603
68.4333 0.2603
68.4500 0.2603
68.4667 0.2602
68.4833 0.2652
68.5000 0.2702
68.5167 0.2752
68.5333 0.2802
68.5500 0.2852
68.5667 0.2902
68.5833 0.2952
68.6000 0.3002
68.6167 0.3052
68.6333 0.3102
68.6500 0.3152
68.6667 0.3202
68.6833 0.3252
68.7000 0.3302
68.7167 0.3352
68.7333 0.3402
68.7500 0.3452
68.7667 0.3502
68.7833 0.3552
68.8000 0.3602
68.8167 0.3652
68.8333 0.3702
68.8500 0.3752
68.8667 0.3802
68.8833 0.3852
68.9000 0.3902
68.9167 0.3952
68.9333 0.4002
68.9500 0.4052
68.9667 0.4102
68.9833 0.2591
69.0000 0.2591
69.0167 0.2591
69.0333 0.2590
69.0500 0.2590
69.0667 0.2590
69.0833 0.2589
69.1000 0.2589
69.1167 0.2589
69.1333 0.2588
69.1500 0.2588
69.1667 0.2588
69.1833 0.2587
69.2000 0.2587
69.2167 0.2587
69.2333 0.2586
69.2500 0.2586
69.2667 0.2586
69.2833 0.2585
69.3000 0.2585
69.3167 0.2585
69.3333 0.2584
69.3500 0.2584
69.3667 0.2583
69.3833 0.2583
69.4000 0.2583
69.4167 0.2582
69.4333 0.2582
69.4500 0.2582
69.4667 0.2581
69.4833 0.2631
69.5000 0.2681
69.5167 0.2731
69.5333 0.2781
69.5500 0.2831
69.5667 0.2881
69.5833 0.2931
69.6000 0.2981
69.6167 0.3031
69.6333 0.3081
69.6500 0.3131
69.6667 0.3181
69.6833 0.3231
69.7000 0.3281
69.7167 0.3331
69.7333 0.3381
69.7500 0.3431
69.7667 0.3481
69.7833 0.3531
69.8000 0.3581
69.8167 0.3631
69.8333 0.3681
69.8500 0.3731
69.8667 0.3781
69.8833 0.3831
69.9000 0.3881
69.9167 0.3931
69.9333 0.3981
69.9500 0.4031
69.9667 0.4081
69.9833 0.2571
70.0000 0.2570
70.0167 0.2570
70.0333 0.2570
70.0500 0.2569
70.0667 0.2569
70.0833 0.2569
70.1000 0.2568
70.1167 0.2568
70.1333 0.2568
70.1500 0.2567
70.1667 0.2567
70.1833 0.2567
70.2000 0.2566
70.2167 0.2566
70.2333 0.2566
70.2500 0.2565
70.2667 0.2565
70.2833 0.2565
70.3000 0.2564
70.3167 0.2564
70.3333 0.2564
70.3500 0.2563
70.3667 0.2563
70.3833 0.2563
70.4000 0.2562
70.4167 0.2562
70.4333 0.2562
70.4500 0.2561
70.4667 0.2561
70.4833 0.2611
70.5000 0.2661
70.5167 0.2711
70.5333 0.2761
70.5500 0.2811
70.5667 0.2861
70.5833 0.2911
70.6000 0.2961
70.6167 0.3011
70.6333 0.3061
70.6500 0.3111
70.6667 0.3161
70.6833 0.3211
70.7000 0.3261
70.7167 0.3311
70.7333 0.3361
70.7500 0.3411
70.7667 0.3461
70.7833 0.3511
70.8000 0.3561
70.8167 0.3611
70.8333 0.3661
70.8500 0.3711
70.8667 0.3761
70.8833 0.3811
70.9000 0.3861
70.9167 0.3911
70.9333 0.3961
70.9500 0.4011
70.9667 0.4061
70.9833 0.2550
71.0000 0.2550
71.0167 0.2550
71.0333 0.2549
71.0500 0.2549
71.0667 0.2549
71.0833 0.2548
71.1000 0.2548
71.1167 0.2548
71.1333 0.2547
71.1500 0.2547
71.1667 0.2547
71.1833 0.2546
71.2000 0.2546
71.2167 0.2546
71.2333 0.2545
71.2500 0.2545
71.2667 0.2545
71.2833 0.2544
71.3000 0.2544
71.3167 0.2544
71.3333 0.2543
71.3500 0.2543
71.3667 0.2542
71.3833 0.2542
71.4000 0.2542
71.4167 0.2541
71.4333 0.2541
71.4500 0.2541
71.4667 0.2540
71.4833 0.2590
71.5000 0.2640
71.5167 0.2690
71.5333 0.2740
71.5500 0.2790
71.5667 0.2840
71.5833 0.2890
71.6000 0.2940
71.6167 0.2990
71.6333 0.3040
71.6500 0.3090
71.6667 0.3140
71.6833 0.3190
71.7000 0.3240
71.7167 0.3290
71.7333 0.3340
71.7500 0.3390
71.7667 0.3440
71.7833 0.3490
71.8000 0.3540
71.8167 0.3590
71.8333 0.3640
71.8500 0.3690
71.8667 0.3740
71.8833 0.3790
71.9000 0.3840
71.9167 0.3890
71.9333 0.3940
71.9500 0.3990
71.9667 0.4040
71.9833 0.2530
72.0000 0.2530
72.0167 0.2529
72.0333 0.2529
72.0500 0.2529
72.0667 0.2528
72.0833 0.2528
72.1000 0.2528
72.1167 0.2527
72.1333 0.2527
72.1500 0.2527
72.1667 0.2526
72.1833 0.2526
72.2000 0.2526
72.2167 0.2525
72.2333 0.2525
72.2500 0.2525
72.2667 0.2524
72.2833 0.2524
72.3000 0.2524
72.3167 0.2523
72.3333 0.2523
72.3500 0.2523
72.3667 0.2522
72.3833 0.2522
72.4000 0.2522
72.4167 0.2521
72.4333 0.2521
72.4500 0.2521
72.4667 0.2520
72.4833 0.2570
72.5000 0.2620
72.5167 0.2670
72.5333 0.2720
72.5500 0.2770
72.5667 0.2820
72.5833 0.2870
72.6000 0.2920
72.6167 0.2970
72.6333 0.3020
72.6500 0.3070
72.6667 0.3120
72.6833 0.3170
72.7000 0.3220
72.7167 0.3270
72.7333 0.3320
72.7500 0.3370
72.7667 0.3420
72.7833 0.3470
72.8000 0.3520
72.8167 0.3570
72.8333 0.3620
72.8500 0.3670
72.8667 0.3720
72.8833 0.3770
72.9000 0.3820
72.9167 0.3870
72.9333 0.3920
72.9500 0.3970
72.9667 0.4020
72.9833 0.2510
73.0000 0.2509
73.0167 0.2509
73.0333 0.2509
73.0500 0.2508
73.0667 0.2508
73.0833 0.2508
73.1000 0.2507
73.1167 0.2507
73.1333 0.2507
73.1500 0.2506
73.1667 0.2506
73.1833 0.2506
73.2000 0.2505
73.2167 0.2505
73.2333 0.2505
73.2500 0.2504
73.2667 0.2504
73.2833 0.2504
73.3000 0.2503
73.3167 0.2503
73.3333 0.2503
73.3500 0.2502
73.3667 0.2502
73.3833 0.2502
73.4000 0.2501
73.4167 0.2501
73.4333 0.2501
73.4500 0.2500
73.4667 0.2500
73.4833 0.2550
73.5000 0.2600
73.5167 0.2650
73.5333 0.2700
73.5500 0.2750
73.5667 0.2800
73.5833 0.2850
73.6000 0.2900
73.6167 0.2950
73.6333 0.3000
73.6500 0.3050
73.6667 0.3100
73.6833 0.3150
73.7000 0.3200
73.7167 0.3250
73.7333 0.3300
73.7500 0.3350
73.7667 0.3400
73.7833 0.3450
73.8000 0.3500
73.8167 0.3550
73.8333 0.3600
73.8500 0.3650
73.8667 0.3700
73.8833 0.3750
73.9000 0.3800
73.9167 0.3850
73.9333 0.3900
73.9500 0.3950
73.9667 0.4000
73.9833 0.2490
74.0000 0.2489
74.0167 0.2489
74.0333 0.2489
74.0500 0.2488
74.0667 0.2488
74.0833 0.2488
74.1000 0.2487
74.1167 0.2487
74.1333 0.2487
74.1500 0.2487
74.1667 0.2486
74.1833 0.2486
74.2000 0.2486
74.2167 0.2485
74.2333 0.2485
74.2500 0.2485
74.2667 0.2484
74.2833 0.2484
74.3000 0.2484
74.3167 0.2483
74.3333 0.2483
74.3500 0.2483
74.3667 0.2482
74.3833 0.2482
74.4000 0.2482
74.4167 0.2481
74.4333 0.2481
74.4500 0.2481
74.4667 0.2480
74.4833 0.2530
74.5000 0.2580
74.5167 0.2630
74.5333 0.2680
74.5500 0.2730
74.5667 0.2780
74.5833 0.2830
74.6000 0.2880
74.6167 0.2930
74.6333 0.2980
74.6500 0.3030
74.6667 0.3080
74.6833 0.3130
74.7000 0.3180
74.7167 0.3230
74.7333 0.3280
74.7500 0.3330
74.7667 0.3380
74.7833 0.3430
74.8000 0.3480
74.8167 0.3530
74.8333 0.3580
74.8500 0.3630
74.8667 0.3680
74.8833 0.3730
74.9000 0.3780
74.9167 0.3830
74.9333 0.3880
74.9500 0.3930
74.9667 0.3980
74.9833 0.2470
75.0000 0.2470
75.0167 0.2469
75.0333 0.2469
75.0500 0.2469
75.0667 0.2468
75.0833 0.2468
75.1000 0.2468
75.1167 0.2467
75.1333 0.2467
75.1500 0.2467
75.1667 0.2466
75.1833 0.2466
75.2000 0.2466
75.2167 0.2465
75.2333 0.2465
75.2500 0.2465
75.2667 0.2464
75.2833 0.2464
75.3000 0.2464
75.3167 0.2463
75.3333 0.2463
75.3500 0.2463
75.3667 0.2462
75.3833 0.2462
75.4000 0.2462
75.4167 0.2461
75.4333 0.2461
75.4500 0.2461
75.4667 0.2460
75.4833 0.2510
75.5000 0.2560
75.5167 0.2610
75.5333 0.2660
75.5500 0.2710
75.5667 0.2760
75.5833 0.2810
75.6000 0.2860
75.6167 0.2910
75.6333 0.2960
75.6500 0.3010
75.6667 0.3060
75.6833 0.3110
75.7000 0.3160
75.7167 0.3210
75.7333 0.3260
75.7500 0.3310
75.7667 0.3360
75.7833 0.3410
75.8000 0.3460
75.8167 0.3510
75.8333 0.3560
75.8500 0.3610
75.8667 0.3660
75.8833 0.3710
75.9000 0.3760
75.9167 0.3810
75.9333 0.3860
75.9500 0.3910
75.9667 0.3960
75.9833 0.2450
76.0000 0.2450
76.0167 0.2450
76.0333 0.2449
76.0500 0.2449
76.0667 0.2449
76.0833 0.2448
76.1000 0.2448
76.1167 0.2448
76.1333 0.2447
76.1500 0.2447
76.1667 0.2447
76.1833 0.2446
76.2000 0.2446
76.2167 0.2446
76.2333 0.2445
76.2500 0.2445
76.2667 0.2445
76.2833 0.2444
76.3000 0.2444
76.3167 0.2444
76.3333 0.2443
76.3500 0.2443
76.3667 0.2443
76.3833 0.2442
76.4000 0.2442
76.4167 0.2442
76.4333 0.2441
76.4500 0.2441
76.4667 0.2441
76.4833 0.2491
76.5000 0.2541
76.5167 0.2591
76.5333 0.2641
76.5500 0.2691
76.5667 0.2741
76.5833 0.2791
76.6000 0.2841
76.6167 0.2891
76.6333 0.2941
76.6500 0.2991
76.6667 0.3041
76.6833 0.3091
76.7000 0.3141
76.7167 0.3191
76.7333 0.3241
76.7500 0.3291
76.7667 0.3341
76.7833 0.3391
76.8000 0.3441
76.8167 0.3491
76.8333 0.3541
76.8500 0.3591
76.8667 0.3641
76.8833 0.3691
76.9000 0.3741
76.9167 0.3791
76.9333 0.3841
76.9500 0.3891
76.9667 0.3941
76.9833 0.2431
77.0000 0.2430
77.0167 0.2430
77.0333 0.2430
77.0500 0.2429
77.0667 0.2429
77.0833 0.2429
77.1000 0.2429
77.1167 0.2428
77.1333 0.2428
77.1500 0.2428
77.1667 0.2427
77.1833 0.2427
77.2000 0.2427
77.2167 0.2426
77.2333 0.2426
77.2500 0.2426
77.2667 0.2425
77.2833 0.2425
77.3000 0.2425
77.3167 0.2424
77.3333 0.2424
77.3500 0.2424
77.3667 0.2423
77.3833 0.2423
77.4000 0.2423
77.4167 0.2422
77.4333 0.2422
77.4500 0.2422
77.4667 0.2421
77.4833 0.2471
77.5000 0.2521
77.5167 0.2571
77.5333 0.2621
77.5500 0.2671
77.5667 0.2721
77.5833 0.2771
77.6000 0.2821
77.6167 0.2871
77.6333 0.2921
77.6500 0.2971
77.6667 0.3021
77.6833 0.3071
77.7000 0.3121
77.7167 0.3171
77.7333 0.3221
77.7500 0.3271
77.7667 0.3321
77.7833 0.3371
77.8000 0.3421
77.8167 0.3471
77.8333 0.3521
77.8500 0.3571
77.8667 0.3621
77.8833 0.3671
77.9000 0.3721
77.9167 0.3771
77.9333 0.3821
77.9500 0.3871
77.9667 0.3921
77.9833 0.2411
78.0000 0.2411
78.0167 0.2411
78.0333 0.2410
78.0500 0.2410
78.0667 0.2410
78.0833 0.2409
78.1000 0.2409
78.1167 0.2409
78.1333 0.2409
78.1500 0.2408
78.1667 0.2408
78.1833 0.2408
78.2000 0.2407
78.2167 0.2407
78.2333 0.2407
78.2500 0.2406
78.2667 0.2406
78.2833 0.2406
78.3000 0.2405
78.3167 0.2405
78.3333 0.2405
78.3500 0.2404
78.3667 0.2404
78.3833 0.2404
78.4000 0.2403
78.4167 0.2403
78.4333 0.2403
78.4500 0.2402
78.4667 0.2402
78.4833 0.2452
78.5000 0.2502
78.5167 0.2552
78.5333 0.2602
78.5500 0.2652
78.5667 0.2702
78.5833 0.2752
78.6000 0.2802
78.6167 0.2852
78.6333 0.2902
78.6500 0.2952
78.6667 0.3002
78.6833 0.3052
78.7000 0.3102
78.7167 0.3152
78.7333 0.3202
78.7500 0.3252
78.7667 0.3302
78.7833 0.3352
78.8000 0.3402
78.8167 0.3452
78.8333 0.3502
78.8500 0.3552
78.8667 0.3602
78.8833 0.3652
78.9000 0.3702
78.9167 0.3752
78.9333 0.3802
78.9500 0.3852
78.9667 0.3902
78.9833 0.2392
79.0000 0.2392
79.0167 0.2392
79.0333 0.2391
79.0500 0.2391
79.0667 0.2391
79.0833 0.2390
79.1000 0.2390
79.1167 0.2390
79.1333 0.2389
79.1500 0.2389
79.1667 0.2389
79.1833 0.2388
79.2000 0.2388
79.2167 0.2388
79.2333 0.2387
79.2500 0.2387
79.2667 0.2387
79.2833 0.2386
79.3000 0.2386
79.3167 0.2386
79.3333 0.2386
79.3500 0.2385
79.3667 0.2385
79.3833 0.2385
79.4000 0.2384
79.4167 0.2384
79.4333 0.2384
79.4500 0.2383
79.4667 0.2383
79.4833 0.2433
79.5000 0.2483
79.5167 0.2533
79.5333 0.2583
79.5500 0.2633
79.5667 0.2683
79.5833 0.2733
79.6000 0.2783
79.6167 0.2833
79.6333 0.2883
79.6500 0.2933
79.6667 0.2983
79.6833 0.3033
79.7000 0.3083
79.7167 0.3133
79.7333 0.3183
79.7500 0.3233
79.7667 0.3283
79.7833 0.3333
79.8000 0.3383
79.8167 0.3433
79.8333 0.3483
79.8500 0.3533
79.8667 0.3583
79.8833 0.3633
79.9000 0.3683
79.9167 0.3733
79.9333 0.3783
79.9500 0.3833
79.9667 0.3883
79.9833 0.2373
80.0000 0.2373
80.0167 0.2372
80.0333 0.2372
80.0500 0.2372
80.0667 0.2372
80.0833 0.2371
80.1000 0.2371
80.1167 0.2371
80.1333 0.2370
80.1500 0.2370
80.1667 0.2370
80.1833 0.2369
80.2000 0.2369
80.2167 0.2369
80.2333 0.2368
80.2500 0.2368
80.2667 0.2368
80.2833 0.2367
80.3000 0.2367
80.3167 0.2367
80.3333 0.2366
80.3500 0.2366
80.3667 0.2366
80.3833 0.2366
80.4000 0.2365
80.4167 0.2365
80.4333 0.2365
80.4500 0.2364
80.4667 0.2364
80.4833 0.2414
80.5000 0.2464
80.5167 0.2514
80.5333 0.2564
80.5500 0.2614
80.5667 0.2664
80.5833 0.2714
80.6000 0.2764
80.6167 0.2814
80.6333 0.2864
80.6500 0.2914
80.6667 0.2964
80.6833 0.3014
80.7000 0.3064
80.7167 0.3114
80.7333 0.3164
80.7500 0.3214
80.7667 0.3264
80.7833 0.3314
80.8000 0.3364
80.8167 0.3414
80.8333 0.3464
80.8500 0.3514
80.8667 0.3564
80.8833 0.3614
80.9000 0.3664
80.9167 0.3714
80.9333 0.3764
80.9500 0.3814
80.9667 0.3864
80.9833 0.2354
81.0000 0.2354
81.0167 0.2354
81.0333 0.2353
81.0500 0.2353
81.0667 0.2353
81.0833 0.2352
81.1000 0.2352
81.1167 0.2352
81.1333 0.2351
81.1500 0.2351
81.1667 0.2351
81.1833 0.2350
81.2000 0.2350
81.2167 0.2350
81.2333 0.2350
81.2500 0.2349
81.2667 0.2349
81.2833 0.2349
81.3000 0.2348
81.3167 0.2348
81.3333 0.2348
81.3500 0.2347
81.3667 0.2347
81.3833 0.2347
81.4000 0.2346
81.4167 0.2346
81.4333 0.2346
81.4500 0.2345
81.4667 0.2345
81.4833 0.2395
81.5000 0.2445
81.5167 0.2495
81.5333 0.2545
81.5500 0.2595
81.5667 0.2645
81.5833 0.2695
81.6000 0.2745
81.6167 0.2795
81.6333 0.2845
81.6500 0.2895
81.6667 0.2945
81.6833 0.2995
81.7000 0.3045
81.7167 0.3095
81.7333 0.3145
81.7500 0.3195
81.7667 0.3245
81.7833 0.3295
81.8000 0.3345
81.8167 0.3395
81.8333 0.3445
81.8500 0.3495
81.8667 0.3545
81.8833 0.3595
81.9000 0.3645
81.9167 0.3695
81.9333 0.3745
81.9500 0.3795
81.9667 0.3845
81.9833 0.2335
82.0000 0.2335
82.0167 0.2335
82.0333 0.2335
82.0500 0.2334
82.0667 0.2334
82.0833 0.2334
82.1000 0.2333
82.1167 0.2333
82.1333 0.2333
82.1500 0.2332
82.1667 0.2332
82.1833 0.2332
82.2000 0.2331
82.2167 0.2331
82.2333 0.2331
82.2500 0.2330
82.2667 0.2330
82.2833 0.2330
82.3000 0.2330
82.3167 0.2329
82.3333 0.2329
82.3500 0.2329
82.3667 0.2328
82.3833 0.2328
82.4000 0.2328
82.4167 0.2327
82.4333 0.2327
82.4500 0.2327
82.4667 0.2326
82.4833 0.2376
82.5000 0.2426
82.5167 0.2476
82.5333 0.2526
82.5500 0.2576
82.5667 0.2626
82.5833 0.2676
82.6000 0.2726
82.6167 0.2776
82.6333 0.2826
82.6500 0.2876
82.6667 0.2926
82.6833 0.2976
82.7000 0.3026
82.7167 0.3076
82.7333 0.3126
82.7500 0.3176
82.7667 0.3226
82.7833 0.3276
82.8000 0.3326
82.8167 0.3376
82.8333 0.3426
82.8500 0.3476
82.8667 0.3526
82.8833 0.3576
82.9000 0.3626
82.9167 0.3676
82.9333 0.3726
82.9500 0.3776
82.9667 0.3826
82.9833 0.2317
83.0000 0.2317
83.0167 0.2316
83.0333 0.2316
83.0500 0.2316
83.0667 0.2315
83.0833 0.2315
83.1000 0.2315
83.1167 0.2314
83.1333 0.2314
83.1500 0.2314
83.1667 0.2313
83.1833 0.2313
83.2000 0.2313
83.2167 0.2313
83.2333 0.2312
83.2500 0.2312
83.2667 0.2312
83.2833 0.2311
83.3000 0.2311
83.3167 0.2311
83.3333 0.2310
83.3500 0.2310
83.3667 0.2310
83.3833 0.2309
83.4000 0.2309
83.4167 0.2309
83.4333 0.2309
83.4500 0.2308
83.4667 0.2308
83.4833 0.2358
83.5000 0.2408
83.5167 0.2458
83.5333 0.2508
83.5500 0.2558
83.5667 0.2608
83.5833 0.2658
83.6000 0.2708
83.6167 0.2758
83.6333 0.2808
83.6500 0.2858
83.6667 0.2908
83.6833 0.2958
83.7000 0.3008
83.7167 0.3058
83.7333 0.3108
83.7500 0.3158
83.7667 0.3208
83.7833 0.3258
83.8000 0.3308
83.8167 0.3358
83.8333 0.3408
83.8500 0.3458
83.8667 0.3508
83.8833 0.3558
83.9000 0.3608
83.9167 0.3658
83.9333 0.3708
83.9500 0.3758
83.9667 0.3808
83.9833 0.2298
84.0000 0.2298
84.0167 0.2298
84.0333 0.2297
84.0500 0.2297
84.0667 0.2297
84.0833 0.2297
84.1000 0.2296
84.1167 0.2296
84.1333 0.2296
84.1500 0.2295
84.1667 0.2295
84.1833 0.2295
84.2000 0.2294
84.2167 0.2294
84.2333 0.2294
84.2500 0.2293
84.2667 0.2293
84.2833 0.2293
84.3000 0.2293
84.3167 0.2292
84.3333 0.2292
84.3500 0.2292
84.3667 0.2291
84.3833 0.2291
84.4000 0.2291
84.4167 0.2290
84.4333 0.2290
84.4500 0.2290
84.4667 0.2290
84.4833 0.2340
84.5000 0.2390
84.5167 0.2440
84.5333 0.2490
84.5500 0.2540
84.5667 0.2590
84.5833 0.2640
84.6000 0.2690
84.6167 0.2740
84.6333 0.2790
84.6500 0.2840
84.6667 0.2890
84.6833 0.2940
84.7000 0.2990
84.7167 0.3040
84.7333 0.3090
84.7500 0.3140
84.7667 0.3190
84.7833 0.3240
84.8000 0.3290
84.8167 0.3340
84.8333 0.3390
84.8500 0.3440
84.8667 0.3490
84.8833 0.3540
84.9000 0.3590
84.9167 0.3640
84.9333 0.3690
84.9500 0.3740
84.9667 0.3790
84.9833 0.2280
85.0000 0.2280
85.0167 0.2279
85.0333 0.2279
85.0500 0.2279
85.0667 0.2279
85.0833 0.2278
85.1000 0.2278
85.1167 0.2278
85.1333 0.2277
85.1500 0.2277
85.1667 0.2277
85.1833 0.2276
85.2000 0.2276
85.2167 0.2276
85.2333 0.2276
85.2500 0.2275
85.2667 0.2275
85.2833 0.2275
85.3000 0.2274
85.3167 0.2274
85.3333 0.2274
85.3500 0.2273
85.3667 0.2273
85.3833 0.2273
85.4000 0.2272
85.4167 0.2272
85.4333 0.2272
85.4500 0.2272
85.4667 0.2271
85.4833 0.2321
85.5000 0.2371
85.5167 0.2421
85.5333 0.2471
85.5500 0.2521
85.5667 0.2571
85.5833 0.2621
85.6000 0.2671
85.6167 0.2721
85.6333 0.2771
85.6500 0.2821
85.6667 0.2871
85.6833 0.2921
85.7000 0.2971
85.7167 0.3021
85.7333 0.3071
85.7500 0.3121
85.7667 0.3171
85.7833 0.3221
85.8000 0.3271
85.8167 0.3321
85.8333 0.3371
85.8500 0.3421
85.8667 0.3471
85.8833 0.3521
85.9000 0.3571
85.9167 0.3621
85.9333 0.3671
85.9500 0.3721
85.9667 0.3771
85.9833 0.2262
86.0000 0.2262
86.0167 0.2261
86.0333 0.2261
86.0500 0.2261
86.0667 0.2260
86.0833 0.2260
86.1000 0.2260
86.1167 0.2260
86.1333 0.2259
86.1500 0.2259
86.1667 0.2259
86.1833 0.2258
86.2000 0.2258
86.2167 0.2258
86.2333 0.2257
86.2500 0.2257
86.2667 0.2257
86.2833 0.2256
86.3000 0.2256
86.3167 0.2256
86.3333 0.2256
86.3500 0.2255
86.3667 0.2255
86.3833 0.2255
86.4000 0.2254
86.4167 0.2254
86.4333 0.2254
86.4500 0.2253
86.4667 0.2253
86.4833 0.2303
86.5000 0.2353
86.5167 0.2403
86.5333 0.2453
86.5500 0.2503
86.5667 0.2553
86.5833 0.2603
86.6000 0.2653
86.6167 0.2703
86.6333 0.2753
86.6500 0.2803
86.6667 0.2853
86.6833 0.2903
86.7000 0.2953
86.7167 0.3003
86.7333 0.3053
86.7500 0.3103
86.7667 0.3153
86.7833 0.3203
86.8000 0.3253
86.8167 0.3303
86.8333 0.3353
86.8500 0.3403
86.8667 0.3453
86.8833 0.3503
86.9000 0.3553
86.9167 0.3603
86.9333 0.3653
86.9500 0.3703
86.9667 0.3753
86.9833 0.2244
87.0000 0.2244
87.0167 0.2243
87.0333 0.2243
87.0500 0.2243
87.0667 0.2242
87.0833 0.2242
87.1000 0.2242
87.1167 0.2241
87.1333 0.2241
87.1500 0.2241
87.1667 0.2241
87.1833 0.2240
87.2000 0.2240
87.2167 0.2240
87.2333 0.2239
87.2500 0.2239
87.2667 0.2239
87.2833 0.2239
87.3000 0.2238
87.3167 0.2238
87.3333 0.2238
87.3500 0.2237
87.3667 0.2237
87.3833 0.2237
87.4000 0.2236
87.4167 0.2236
87.4333 0.2236
87.4500 0.2236
87.4667 0.2235
87.4833 0.2285
87.5000 0.2335
87.5167 0.2385
87.5333 0.2435
87.5500 0.2485
87.5667 0.2535
87.5833 0.2585
87.6000 0.2635
87.6167 0.2685
87.6333 0.2735
87.6500 0.2785
87.6667 0.2835
87.6833 0.2885
87.7000 0.2935
87.7167 0.2985
87.7333 0.3035
87.7500 0.3085
87.7667 0.3135
87.7833 0.3185
87.8000 0.3235
87.8167 0.3285
87.8333 0.3335
87.8500 0.3385
87.8667 0.3435
87.8833 0.3485
87.9000 0.3535
87.9167 0.3585
87.9333 0.3635
87.9500 0.3685
87.9667 0.3735
87.9833 0.2226
88.0000 0.2226
88.0167 0.2225
88.0333 0.2225
88.0500 0.2225
88.0667 0.2225
88.0833 0.2224
88.1000 0.2224
88.1167 0.2224
88.1333 0.2223
88.1500 0.2223
88.1667 0.2223
88.1833 0.2222
88.2000 0.2222
88.2167 0.2222
88.2333 0.2222
88.2500 0.2221
88.2667 0.2221
88.2833 0.2221
88.3000 0.2220
88.3167 0.2220
88.3333 0.2220
88.3500 0.2219
88.3667 0.2219
88.3833 0.2219
88.4000 0.2219
88.4167 0.2218
88.4333 0.2218
88.4500 0.2218
88.4667 0.2217
88.4833 0.2267
88.5000 0.2317
88.5167 0.2367
88.5333 0.2417
88.5500 0.2467
88.5667 0.2517
88.5833 0.2567
88.6000 0.2617
88.6167 0.2667
88.6333 0.2717
88.6500 0.2767
88.6667 0.2817
88.6833 0.2867
88.7000 0.2917
88.7167 0.2967
88.7333 0.3017
88.7500 0.3067
88.7667 0.3117
88.7833 0.3167
88.8000 0.3217
88.8167 0.3267
88.8333 0.3317
88.8500 0.3367
88.8667 0.3417
88.8833 0.3467
88.9000 0.3517
88.9167 0.3567
88.9333 0.3617
88.9500 0.3667
88.9667 0.3717
88.9833 0.2208
89.0000 0.2208
89.0167 0.2208
89.0333 0.2207
89.0500 0.2207
89.0667 0.2207
89.0833 0.2207
89.1000 0.2206
89.1167 0.2206
89.1333 0.2206
89.1500 0.2205
89.1667 0.2205
89.1833 0.2205
89.2000 0.2204
89.2167 0.2204
89.2333 0.2204
89.2500 0.2204
89.2667 0.2203
89.2833 0.2203
89.3000 0.2203
89.3167 0.2202
89.3333 0.2202
89.3500 0.2202
89.3667 0.2202
89.3833 0.2201
89.4000 0.2201
89.4167 0.2201
89.4333 0.2200
89.4500 0.2200
89.4667 0.2200
89.4833 0.2250
89.5000 0.2300
89.5167 0.2350
89.5333 0.2400
89.5500 0.2450
89.5667 0.2500
89.5833 0.2550
89.6000 0.2600
89.6167 0.2650
89.6333 0.2700
89.6500 0.2750
89.6667 0.2800
89.6833 0.2850
89.7000 0.2900
89.7167 0.2950
89.7333 0.3000
89.7500 0.3050
89.7667 0.3100
89.7833 0.3150
89.8000 0.3200
89.8167 0.3250
89.8333 0.3300
89.8500 0.3350
89.8667 0.3400
89.8833 0.3450
89.9000 0.3500
89.9167 0.3550
89.9333 0.3600
89.9500 0.3650
89.9667 0.3700
89.9833 0.2191
90.0000 0.2190
90.0167 0.2190
90.0333 0.2190
90.0500 0.2190
90.0667 0.2189
90.0833 0.2189
90.1000 0.2189
90.1167 0.2188
90.1333 0.2188
90.1500 0.2188
90.1667 0.2187
90.1833 0.2187
90.2000 0.2187
90.2167 0.2187
90.2333 0.2186
90.2500 0.2186
90.2667 0.2186
90.2833 0.2185
90.3000 0.2185
90.3167 0.2185
90.3333 0.2185
90.3500 0.2184
90.3667 0.2184
90.3833 0.2184
90.4000 0.2183
90.4167 0.2183
90.4333 0.2183
90.4500 0.2183
90.4667 0.2182
90.4833 0.2232
90.5000 0.2282
90.5167 0.2332
90.5333 0.2382
90.5500 0.2432
90.5667 0.2482
90.5833 0.2532
90.6000 0.2582
90.6167 0.2632
90.6333 0.2682
90.6500 0.2732
90.6667 0.2782
90.6833 0.2832
90.7000 0.2882
90.7167 0.2932
90.7333 0.2982
90.7500 0.3032
90.7667 0.3082
90.7833 0.3132
90.8000 0.3182
90.8167 0.3232
90.8333 0.3282
90.8500 0.3332
90.8667 0.3382
90.8833 0.3432
90.9000 0.3482
90.9167 0.3532
90.9333 0.3582
90.9500 0.3632
90.9667 0.3682
90.9833 0.2173
91.0000 0.2173
91.0167 0.2173
91.0333 0.2172
91.0500 0.2172
91.0667 0.2172
91.0833 0.2171
91.1000 0.2171
91.1167 0.2171
91.1333 0.2171
91.1500 0.2170
91.1667 0.2170
91.1833 0.2170
91.2000 0.2169
91.2167 0.2169
91.2333 0.2169
91.2500 0.2169
91.2667 0.2168
91.2833 0.2168
91.3000 0.2168
91.3167 0.2167
91.3333 0.2167
91.3500 0.2167
91.3667 0.2167
91.3833 0.2166
91.4000 0.2166
91.4167 0.2166
91.4333 0.2165
91.4500 0.2165
91.4667 0.2165
91.4833 0.2215
91.5000 0.2265
91.5167 0.2315
91.5333 0.2365
91.5500 0.2415
91.5667 0.2465
91.5833 0.2515
91.6000 0.2565
91.6167 0.2615
91.6333 0.2665
91.6500 0.2715
91.6667 0.2765
91.6833 0.2815
91.7000 0.2865
91.7167 0.2915
91.7333 0.2965
91.7500 0.3015
91.7667 0.3065
91.7833 0.3115
91.8000 0.3165
91.8167 0.3215
91.8333 0.3265
91.8500 0.3315
91.8667 0.3365
91.8833 0.3415
91.9000 0.3465
91.9167 0.3515
91.9333 0.3565
91.9500 0.3615
91.9667 0.3665
91.9833 0.2156
92.0000 0.2156
92.0167 0.2155
92.0333 0.2155
92.0500 0.2155
92.0667 0.2154
92.0833 0.2154
92.1000 0.2154
92.1167 0.2154
92.1333 0.2153
92.1500 0.2153
92.1667 0.2153
92.1833 0.2152
92.2000 0.2152
92.2167 0.2152
92.2333 0.2152
92.2500 0.2151
92.2667 0.2151
92.2833 0.2151
92.3000 0.2150
92.3167 0.2150
92.3333 0.2150
92.3500 0.2150
92.3667 0.2149
92.3833 0.2149
92.4000 0.2149
92.4167 0.2148
92.4333 0.2148
92.4500 0.2148
92.4667 0.2148
92.4833 0.2198
92.5000 0.2248
92.5167 0.2298
92.5333 0.2348
92.5500 0.2398
92.5667 0.2448
92.5833 0.2498
92.6000 0.2548
92.6167 0.2598
92.6333 0.2648
92.6500 0.2698
92.6667 0.2748
92.6833 0.2798
92.7000 0.2848
92.7167 0.2898
92.7333 0.2948
92.7500 0.2998
92.7667 0.3048
92.7833 0.3098
92.8000 0.3148
92.8167 0.3198
92.8333 0.3248
92.8500 0.3298
92.8667 0.3348
92.8833 0.3398
92.9000 0.3448
92.9167 0.3498
92.9333 0.3548
92.9500 0.3598
92.9667 0.3648
92.9833 0.2139
93.0000 0.2138
93.0167 0.2138
93.0333 0.2138
93.0500 0.2138
93.0667 0.2137
93.0833 0.2137
93.1000 0.2137
93.1167 0.2136
93.1333 0.2136
93.1500 0.2136
93.1667 0.2136
93.1833 0.2135
93.2000 0.2135
93.2167 0.2135
93.2333 0.2134
93.2500 0.2134
93.2667 0.2134
93.2833 0.2134
93.3000 0.2133
93.3167 0.2133
93.3333 0.2133
93.3500 0.2132
93.3667 0.2132
93.3833 0.2132
93.4000 0.2132
93.4167 0.2131
93.4333 0.2131
93.4500 0.2131
93.4667 0.2130
93.4833 0.2180
93.5000 0.2230
93.5167 0.2280
93.5333 0.2330
93.5500 0.2380
93.5667 0.2430
93.5833 0.2480
93.6000 0.2530
93.6167 0.2580
93.6333 0.2630
93.6500 0.2680
93.6667 0.2730
93.6833 0.2780
93.7000 0.2830
93.7167 0.2880
93.7333 0.2930
93.7500 0.2980
93.7667 0.3030
93.7833 0.3080
93.8000 0.3130
93.8167 0.3180
93.8333 0.3230
93.8500 0.3280
93.8667 0.3330
93.8833 0.3380
93.9000 0.3430
93.9167 0.3480
93.9333 0.3530
93.9500 0.3580
93.9667 0.3630
93.9833 0.2122
94.0000 0.2121
94.0167 0.2121
94.0333 0.2121
94.0500 0.2121
94.0667 0.2120
94.0833 0.2120
94.1000 0.2120
94.1167 0.2119
94.1333 0.2119
94.1500 0.2119
94.1667 0.2119
94.1833 0.2118
94.2000 0.2118
94.2167 0.2118
94.2333 0.2117
94.2500 0.2117
94.2667 0.2117
94.2833 0.2117
94.3000 0.2116
94.3167 0.2116
94.3333 0.2116
94.3500 0.2115
94.3667 0.2115
94.3833 0.2115
94.4000 0.2115
94.4167 0.2114
94.4333 0.2114
94.4500 0.2114
94.4667 0.2113
94.4833 0.2163
94.5000 0.2213
94.5167 0.2263
94.5333 0.2313
94.5500 0.2363
94.5667 0.2413
94.5833 0.2463
94.6000 0.2513
94.6167 0.2563
94.6333 0.2613
94.6500 0.2663
94.6667 0.2713
94.6833 0.2763
94.7000 0.2813
94.7167 0.2863
94.7333 0.2913
94.7500 0.2963
94.7667 0.3013
94.7833 0.3063
94.8000 0.3113
94.8167 0.3163
94.8333 0.3213
94.8500 0.3263
94.8667 0.3313
94.8833 0.3363
94.9000 0.3413
94.9167 0.3463
94.9333 0.3513
94.9500 0.3563
94.9667 0.3613
94.9833 0.2105
95.0000 0.2104
95.0167 0.2104
95.0333 0.2104
95.0500 0.2104
95.0667 0.2103
95.0833 0.2103
95.1000 0.2103
95.1167 0.2103
95.1333 0.2102
95.1500 0.2102
95.1667 0.2102
95.1833 0.2101
95.2000 0.2101
95.2167 0.2101
95.2333 0.2101
95.2500 0.2100
95.2667 0.2100
95.2833 0.2100
95.3000 0.2099
95.3167 0.2099
95.3333 0.2099
95.3500 0.2099
95.3667 0.2098
95.3833 0.2098
95.4000 0.2098
95.4167 0.2097
95.4333 0.2097
95.4500 0.2097
95.4667 0.2097
95.4833 0.2147
95.5000 0.2197
95.5167 0.2247
95.5333 0.2297
95.5500 0.2347
95.5667 0.2397
95.5833 0.2447
95.6000 0.2497
95.6167 0.2547
95.6333 0.2597
95.6500 0.2647
95.6667 0.2697
95.6833 0.2747
95.7000 0.2797
95.7167 0.2847
95.7333 0.2897
95.7500 0.2947
95.7667 0.2997
95.7833 0.3047
95.8000 0.3097
95.8167 0.3147
95.8333 0.3197
95.8500 0.3247
95.8667 0.3297
95.8833 0.3347
95.9000 0.3397
95.9167 0.3447
95.9333 0.3497
95.9500 0.3547
95.9667 0.3597
95.9833 0.2088
96.0000 0.2088
96.0167 0.2087
96.0333 0.2087
96.0500 0.2087
96.0667 0.2087
96.0833 0.2086
96.1000 0.2086
96.1167 0.2086
96.1333 0.2086
96.1500 0.2085
96.1667 0.2085
96.1833 0.2085
96.2000 0.2084
96.2167 0.2084
96.2333 0.2084
96.2500 0.2084
96.2667 0.2083
96.2833 0.2083
96.3000 0.2083
96.3167 0.2082
96.3333 0.2082
96.3500 0.2082
96.3667 0.2082
96.3833 0.2081
96.4000 0.2081
96.4167 0.2081
96.4333 0.2081
96.4500 0.2080
96.4667 0.2080
96.4833 0.2130
96.5000 0.2180
96.5167 0.2230
96.5333 0.2280
96.5500 0.2330
96.5667 0.2380
96.5833 0.2430
96.6000 0.2480
96.6167 0.2530
96.6333 0.2580
96.6500 0.2630
96.6667 0.2680
96.6833 0.2730
96.7000 0.2780
96.7167 0.2830
96.7333 0.2880
96.7500 0.2930
96.7667 0.2980
96.7833 0.3030
96.8000 0.3080
96.8167 0.3130
96.8333 0.3180
96.8500 0.3230
96.8667 0.3280
96.8833 0.3330
96.9000 0.3380
96.9167 0.3430
96.9333 0.3480
96.9500 0.3530
96.9667 0.3580
96.9833 0.2071
97.0000 0.2071
97.0167 0.2071
97.0333 0.2071
97.0500 0.2070
97.0667 0.2070
97.0833 0.2070
97.1000 0.2069
97.1167 0.2069
97.1333 0.2069
97.1500 0.2069
97.1667 0.2068
97.1833 0.2068
97.2000 0.2068
97.2167 0.2068
97.2333 0.2067
97.2500 0.2067
97.2667 0.2067
97.2833 0.2066
97.3000 0.2066
97.3167 0.2066
97.3333 0.2066
97.3500 0.2065
97.3667 0.2065
97.3833 0.2065
97.4000 0.2064
97.4167 0.2064
97.4333 0.2064
97.4500 0.2064
97.4667 0.2063
97.4833 0.2113
97.5000 0.2163
97.5167 0.2213
97.5333 0.2263
97.5500 0.2313
97.5667 0.2363
97.5833 0.2413
97.6000 0.2463
97.6167 0.2513
97.6333 0.2563
97.6500 0.2613
97.6667 0.2663
97.6833 0.2713
97.7000 0.2763
97.7167 0.2813
97.7333 0.2863
97.7500 0.2913
97.7667 0.2963
97.7833 0.3013
97.8000 0.3063
97.8167 0.3113
97.8333 0.3163
97.8500 0.3213
97.8667 0.3263
97.8833 0.3313
97.9000 0.3363
97.9167 0.3413
97.9333 0.3463
97.9500 0.3513
97.9667 0.3563
97.9833 0.2055
98.0000 0.2055
98.0167 0.2054
98.0333 0.2054
98.0500 0.2054
98.0667 0.2053
98.0833 0.2053
98.1000 0.2053
98.1167 0.2053
98.1333 0.2052
98.1500 0.2052
98.1667 0.2052
98.1833 0.2052
98.2000 0.2051
98.2167 0.2051
98.2333 0.2051
98.2500 0.2050
98.2667 0.2050
98.2833 0.2050
98.3000 0.2050
98.3167 0.2049
98.3333 0.2049
98.3500 0.2049
98.3667 0.2049
98.3833 0.2048
98.4000 0.2048
98.4167 0.2048
98.4333 0.2047
98.4500 0.2047
98.4667 0.2047
98.4833 0.2097
98.5000 0.2147
98.5167 0.2197
98.5333 0.2247
98.5500 0.2297
98.5667 0.2347
98.5833 0.2397
98.6000 0.2447
98.6167 0.2497
98.6333 0.2547
98.6500 0.2597
98.6667 0.2647
98.6833 0.2697
98.7000 0.2747
98.7167 0.2797
98.7333 0.2847
98.7500 0.2897
98.7667 0.2947
98.7833 0.2997
98.8000 0.3047
98.8167 0.3097
98.8333 0.3147
98.8500 0.3197
98.8667 0.3247
98.8833 0.3297
98.9000 0.3347
98.9167 0.3397
98.9333 0.3447
98.9500 0.3497
98.9667 0.3547
98.9833 0.2038
99.0000 0.2038
99.0167 0.2038
99.0333 0.2038
99.0500 0.2037
99.0667 0.2037
99.0833 0.2037
99.1000 0.2037
99.1167 0.2036
99.1333 0.2036
99.1500 0.2036
99.1667 0.2036
99.1833 0.2035
99.2000 0.2035
99.2167 0.2035
99.2333 0.2034
99.2500 0.2034
99.2667 0.2034
99.2833 0.2034
99.3000 0.2033
99.3167 0.2033
99.3333 0.2033
99.3500 0.2033
99.3667 0.2032
99.3833 0.2032
99.4000 0.2032
99.4167 0.2031
99.4333 0.2031
99.4500 0.2031
99.4667 0.2031
99.4833 0.2081
99.5000 0.2131
99.5167 0.2181
99.5333 0.2231
99.5500 0.2281
99.5667 0.2331
99.5833 0.2381
99.6000 0.2431
99.6167 0.2481
99.6333 0.2531
99.6500 0.2581
99.6667 0.2631
99.6833 0.2681
99.7000 0.2731
99.7167 0.2781
99.7333 0.2831
99.7500 0.2881
99.7667 0.2931
99.7833 0.2981
99.8000 0.3031
99.8167 0.3081
99.8333 0.3131
99.8500 0.3181
99.8667 0.3231
99.8833 0.3281
99.9000 0.3331
99.9167 0.3381
99.9333 0.3431
99.9500 0.3481
99.9667 0.3531
99.9833 0.2022
100.0000 0.2022
100.0167 0.2022
100.0333 0.2021
100.0500 0.2021
100.0667 0.2021
100.0833 0.2021
100.1000 0.2020
100.1167 0.2020
100.1333 0.2020
100.1500 0.2020
100.1667 0.2019
100.1833 0.2019
100.2000 0.2019
100.2167 0.2018
100.2333 0.2018
100.2500 0.2018
100.2667 0.2018
100.2833 0.2017
100.3000 0.2017
100.3167 0.2017
100.3333 0.2017
100.3500 0.2016
100.3667 0.2016
100.3833 0.2016
100.4000 0.2016
100.4167 0.2015
100.4333 0.2015
100.4500 0.2015
100.4667 0.2014
100.4833 0.2014
100.5000 0.2014
100.5167 0.2014
100.5333 0.2013
100.5500 0.2013
100.5667 0.2013
100.5833 0.2013
100.6000 0.2012
100.6167 0.2012
100.6333 0.2012
100.6500 0.2011
100.6667 0.2011
100.6833 0.2011
100.7000 0.2011
100.7167 0.2010
100.7333 0.2010
100.7500 0.2010
100.7667 0.2010
100.7833 0.2009
100.8000 0.2009
100.8167 0.2009
100.8333 0.2009
100.8500 0.2008
100.8667 0.2008
100.8833 0.2008
100.9000 0.2007
100.9167 0.2007
100.9333 0.2007
100.9500 0.2007
100.9667 0.2006
100.9833 0.2006
101.0000 0.2006
101.0167 0.2006
101.0333 0.2005
101.0500 0.2005
101.0667 0.2005
101.0833 0.2005
101.1000 0.2004
101.1167 0.2004
101.1333 0.2004
101.1500 0.2003
101.1667 0.2003
101.1833 0.2003
101.2000 0.2003
101.2167 0.2002
101.2333 0.2002
101.2500 0.2002
101.2667 0.2002
101.2833 0.2001
101.3000 0.2001
101.3167 0.2001
101.3333 0.2001
101.3500 0.2000
101.3667 0.2000
101.3833 0.2000
101.4000 0.1999
101.4167 0.1999
101.4333 0.1999
101.4500 0.1999
101.4667 0.1998
101.4833 0.1998
101.5000 0.1998
101.5167 0.1998
101.5333 0.1997
101.5500 0.1997
101.5667 0.1997
101.5833 0.1997
101.6000 0.1996
101.6167 0.1996
101.6333 0.1996
101.6500 0.1995
101.6667 0.1995
101.6833 0.1995
101.7000 0.1995
101.7167 0.1994
101.7333 0.1994
101.7500 0.1994
101.7667 0.1994
101.7833 0.1993
101.8000 0.1993
101.8167 0.1993
101.8333 0.1993
101.8500 0.1992
101.8667 0.1992
101.8833 0.1992
101.9000 0.1991
101.9167 0.1991
101.9333 0.1991
101.9500 0.1991
101.9667 0.1990
101.9833 0.1990
102.0000 0.1990
102.0167 0.1990
102.0333 0.1989
102.0500 0.1989
102.0667 0.1989
102.0833 0.1989
102.1000 0.1988
102.1167 0.1988
102.1333 0.1988
102.1500 0.1987
102.1667 0.1987
102.1833 0.1987
102.2000 0.1987
102.2167 0.1986
102.2333 0.1986
102.2500 0.1986
102.2667 0.1986
102.2833 0.1985
102.3000 0.1985
102.3167 0.1985
102.3333 0.1985
102.3500 0.1984
102.3667 0.1984
102.3833 0.1984
102.4000 0.1984
102.4167 0.1983
102.4333 0.1983
102.4500 0.1983
102.4667 0.1982
102.4833 0.1982
102.5000 0.1982
102.5167 0.1982
102.5333 0.1981
102.5500 0.1981
102.5667 0.1981
102.5833 0.1981
102.6000 0.1980
102.6167 0.1980
102.6333 0.1980
102.6500 0.1980
102.6667 0.1979
102.6833 0.1979
102.7000 0.1979
102.7167 0.1979
102.7333 0.1978
102.7500 0.1978
102.7667 0.1978
102.7833 0.1977
102.8000 0.1977
102.8167 0.1977
102.8333 0.1977
102.8500 0.1976
102.8667 0.1976
102.8833 0.1976
102.9000 0.1976
102.9167 0.1975
102.9333 0.1975
102.9500 0.1975
102.9667 0.1975
102.9833 0.1974
103.0000 0.1974
103.0167 0.1974
103.0333 0.1974
103.0500 0.1973
103.0667 0.1973
103.0833 0.1973
103.1000 0.1972
103.1167 0.1972
103.1333 0.1972
103.1500 0.1972
103.1667 0.1971
103.1833 0.1971
103.2000 0.1971
103.2167 0.1971
103.2333 0.1970
103.2500 0.1970
103.2667 0.1970
103.2833 0.1970
103.3000 0.1969
103.3167 0.1969
103.3333 0.1969
103.3500 0.1969
103.3667 0.1968
103.3833 0.1968
103.4000 0.1968
103.4167 0.1967
103.4333 0.1967
103.4500 0.1967
103.4667 0.1967
103.4833 0.1966
103.5000 0.1966
103.5167 0.1966
103.5333 0.1966
103.5500 0.1965
103.5667 0.1965
103.5833 0.1965
103.6000 0.1965
103.6167 0.1964
103.6333 0.1964
103.6500 0.1964
103.6667 0.1964
103.6833 0.1963
103.7000 0.1963
103.7167 0.1963
103.7333 0.1962
103.7500 0.1962
103.7667 0.1962
103.7833 0.1962
103.8000 0.1961
103.8167 0.1961
103.8333 0.1961
103.8500 0.1961
103.8667 0.1960
103.8833 0.1960
103.9000 0.1960
103.9167 0.1960
103.9333 0.1959
103.9500 0.1959
103.9667 0.1959
103.9833 0.1959
104.0000 0.1958
104.0167 0.1958
104.0333 0.1958
104.0500 0.1958
104.0667 0.1957
104.0833 0.1957
104.1000 0.1957
104.1167 0.1956
104.1333 0.1956
104.1500 0.1956
104.1667 0.1956
104.1833 0.1955
104.2000 0.1955
104.2167 0.1955
104.2333 0.1955
104.2500 0.1954
104.2667 0.1954
104.2833 0.1954
104.3000 0.1954
104.3167 0.1953
104.3333 0.1953
104.3500 0.1953
104.3667 0.1953
104.3833 0.1952
104.4000 0.1952
104.4167 0.1952
104.4333 0.1952
104.4500 0.1951
104.4667 0.1951
104.4833 0.1951
104.5000 0.1950
104.5167 0.1950
104.5333 0.1950
104.5500 0.1950
104.5667 0.1949
104.5833 0.1949
104.6000 0.1949
104.6167 0.1949
104.6333 0.1948
104.6500 0.1948
104.6667 0.1948
104.6833 0.1948
104.7000 0.1947
104.7167 0.1947
104.7333 0.1947
104.7500 0.1947
104.7667 0.1946
104.7833 0.1946
104.8000 0.1946
104.8167 0.1946
104.8333 0.1945
104.8500 0.1945
104.8667 0.1945
104.8833 0.1945
104.9000 0.1944
104.9167 0.1944
104.9333 0.1944
104.9500 0.1943
104.9667 0.1943
104.9833 0.1943
105.0000 0.1943
105.0167 0.1942
105.0333 0.1942
105.0500 0.1942
105.0667 0.1942
105.0833 0.1941
105.1000 0.1941
105.1167 0.1941
105.1333 0.1941
105.1500 0.1940
105.1667 0.1940
105.1833 0.1940
105.2000 0.1940
105.2167 0.1939
105.2333 0.1939
105.2500 0.1939
105.2667 0.1939
105.2833 0.1938
105.3000 0.1938
105.3167 0.1938
105.3333 0.1938
105.3500 0.1937
105.3667 0.1937
105.3833 0.1937
105.4000 0.1936
105.4167 0.1936
105.4333 0.1936
105.4500 0.1936
105.4667 0.1935
105.4833 0.1935
105.5000 0.1935
105.5167 0.1935
105.5333 0.1934
105.5500 0.1934
105.5667 0.1934
105.5833 0.1934
105.6000 0.1933
105.6167 0.1933
105.6333 0.1933
105.6500 0.1933
105.6667 0.1932
105.6833 0.1932
105.7000 0.1932
105.7167 0.1932
105.7333 0.1931
105.7500 0.1931
105.7667 0.1931
105.7833 0.1931
105.8000 0.1930
105.8167 0.1930
105.8333 0.1930
105.8500 0.1930
105.8667 0.1929
105.8833 0.1929
105.9000 0.1929
105.9167 0.1929
105.9333 0.1928
105.9500 0.1928
105.9667 0.1928
105.9833 0.1927
106.0000 0.1927
106.0167 0.1927
106.0333 0.1927
106.0500 0.1926
106.0667 0.1926
106.0833 0.1926
106.1000 0.1926
106.1167 0.1925
106.1333 0.1925
106.1500 0.1925
106.1667 0.1925
106.1833 0.1924
106.2000 0.1924
106.2167 0.1924
106.2333 0.1924
106.2500 0.1923
106.2667 0.1923
106.2833 0.1923
106.3000 0.1923
106.3167 0.1922
106.3333 0.1922
106.3500 0.1922
106.3667 0.1922
106.3833 0.1921
106.4000 0.1921
106.4167 0.1921
106.4333 0.1921
106.4500 0.1920
106.4667 0.1920
106.4833 0.1920
106.5000 0.1920
106.5167 0.1919
106.5333 0.1919
106.5500 0.1919
106.5667 0.1919
106.5833 0.1918
106.6000 0.1918
106.6167 0.1918
106.6333 0.1917
106.6500 0.1917
106.6667 0.1917
106.6833 0.1917
106.7000 0.1916
106.7167 0.1916
106.7333 0.1916
106.7500 0.1916
106.7667 0.1915
106.7833 0.1915
106.8000 0.1915
106.8167 0.1915
106.8333 0.1914
106.8500 0.1914
106.8667 0.1914
106.8833 0.1914
106.9000 0.1913
106.9167 0.1913
106.9333 0.1913
106.9500 0.1913
106.9667 0.1912
106.9833 0.1912
107.0000 0.1912
107.0167 0.1912
107.0333 0.1911
107.0500 0.1911
107.0667 0.1911
107.0833 0.1911
107.1000 0.1910
107.1167 0.1910
107.1333 0.1910
107.1500 0.1910
107.1667 0.1909
107.1833 0.1909
107.2000 0.1909
107.2167 0.1909
107.2333 0.1908
107.2500 0.1908
107.2667 0.1908
107.2833 0.1908
107.3000 0.1907
107.3167 0.1907
107.3333 0.1907
107.3500 0.1907
107.3667 0.1906
107.3833 0.1906
107.4000 0.1906
107.4167 0.1905
107.4333 0.1905
107.4500 0.1905
107.4667 0.1905
107.4833 0.1904
107.5000 0.1904
107.5167 0.1904
107.5333 0.1904
107.5500 0.1903
107.5667 0.1903
107.5833 0.1903
107.6000 0.1903
107.6167 0.1902
107.6333 0.1902
107.6500 0.1902
107.6667 0.1902
107.6833 0.1901
107.7000 0.1901
107.7167 0.1901
107.7333 0.1901
107.7500 0.1900
107.7667 0.1900
107.7833 0.1900
107.8000 0.1900
107.8167 0.1899
107.8333 0.1899
107.8500 0.1899
107.8667 0.1899
107.8833 0.1898
107.9000 0.1898
107.9167 0.1898
107.9333 0.1898
107.9500 0.1897
107.9667 0.1897
107.9833 0.1897
108.0000 0.1897
108.0167 0.1896
108.0333 0.1896
108.0500 0.1896
108.0667 0.1896
108.0833 0.1895
108.1000 0.1895
108.1167 0.1895
108.1333 0.1895
108.1500 0.1894
108.1667 0.1894
108.1833 0.1894
108.2000 0.1894
108.2167 0.1893
108.2333 0.1893
108.2500 0.1893
108.2667 0.1893
108.2833 0.1892
108.3000 0.1892
108.3167 0.1892
108.3333 0.1892
108.3500 0.1891
108.3667 0.1891
108.3833 0.1891
108.4000 0.1891
108.4167 0.1890
108.4333 0.1890
108.4500 0.1890
108.4667 0.1890
108.4833 0.1889
108.5000 0.1889
108.5167 0.1889
108.5333 0.1889
108.5500 0.1888
108.5667 0.1888
108.5833 0.1888
108.6000 0.1888
108.6167 0.1887
108.6333 0.1887
108.6500 0.1887
108.6667 0.1887
108.6833 0.1886
108.7000 0.1886
108.7167 0.1886
108.7333 0.1886
108.7500 0.1885
108.7667 0.1885
108.7833 0.1885
108.8000 0.1885
108.8167 0.1884
108.8333 0.1884
108.8500 0.1884
108.8667 0.1884
108.8833 0.1883
108.9000 0.1883
108.9167 0.1883
108.9333 0.1883
108.9500 0.1882
108.9667 0.1882
108.9833 0.1882
109.0000 0.1882
109.0167 0.1881
109.0333 0.1881
109.0500 0.1881
109.0667 0.1881
109.0833 0.1880
109.1000 0.1880
109.1167 0.1880
109.1333 0.1880
109.1500 0.1879
109.1667 0.1879
109.1833 0.1879
109.2000 0.1879
109.2167 0.1878
109.2333 0.1878
109.2500 0.1878
109.2667 0.1878
109.2833 0.1877
109.3000 0.1877
109.3167 0.1877
109.3333 0.1877
109.3500 0.1876
109.3667 0.1876
109.3833 0.1876
109.4000 0.1876
109.4167 0.1875
109.4333 0.1875
109.4500 0.1875
109.4667 0.1875
109.4833 0.1874
109.5000 0.1874
109.5167 0.1874
109.5333 0.1874
109.5500 0.1873
109.5667 0.1873
109.5833 0.1873
109.6000 0.1873
109.6167 0.1872
109.6333 0.1872
109.6500 0.1872
109.6667 0.1872
109.6833 0.1871
109.7000 0.1871
109.7167 0.1871
109.7333 0.1871
109.7500 0.1870
109.7667 0.1870
109.7833 0.1870
109.8000 0.1870
109.8167 0.1869
109.8333 0.1869
109.8500 0.1869
109.8667 0.1869
109.8833 0.1868
109.9000 0.1868
109.9167 0.1868
109.9333 0.1868
109.9500 0.1867
109.9667 0.1867
109.9833 0.1867
110.0000 0.1867
110.0167 0.1866
110.0333 0.1866
110.0500 0.1866
110.0667 0.1866
110.0833 0.1865
110.1000 0.1865
110.1167 0.1865
110.1333 0.1865
110.1500 0.1864
110.1667 0.1864
110.1833 0.1864
110.2000 0.1864
110.2167 0.1863
110.2333 0.1863
110.2500 0.1863
110.2667 0.1863
110.2833 0.1862
110.3000 0.1862
110.3167 0.1862
110.3333 0.1862
110.3500 0.1861
110.3667 0.1861
110.3833 0.1861
110.4000 0.1861
110.4167 0.1860
110.4333 0.1860
110.4500 0.1860
110.4667 0.1860
110.4833 0.1859
110.5000 0.1859
110.5167 0.1859
110.5333 0.1859
110.5500 0.1858
110.5667 0.1858
110.5833 0.1858
110.6000 0.1858
110.6167 0.1857
110.6333 0.1857
110.6500 0.1857
110.6667 0.1857
110.6833 0.1856
110.7000 0.1856
110.7167 0.1856
110.7333 0.1856
110.7500 0.1855
110.7667 0.1855
110.7833 0.1855
110.8000 0.1855
110.8167 0.1854
110.8333 0.1854
110.8500 0.1854
110.8667 0.1854
110.8833 0.1853
110.9000 0.1853
110.9167 0.1853
110.9333 0.1853
110.9500 0.1852
110.9667 0.1852
110.9833 0.1852
111.0000 0.1852
111.0167 0.1851
111.0333 0.1851
111.0500 0.1851
111.0667 0.1851
111.0833 0.1850
111.1000 0.1850
111.1167 0.1850
111.1333 0.1850
111.1500 0.1849
111.1667 0.1849
111.1833 0.1849
111.2000 0.1849
111.2167 0.1848
111.2333 0.1848
111.2500 0.1848
111.2667 0.1848
111.2833 0.1847
111.3000 0.1847
111.3167 0.1847
111.3333 0.1847
111.3500 0.1846
111.3667 0.1846
111.3833 0.1846
111.4000 0.1846
111.4167 0.1845
111.4333 0.1845
111.4500 0.1845
111.4667 0.1845
111.4833 0.1845
111.5000 0.1844
111.5167 0.1844
111.5333 0.1844
111.5500 0.1844
111.5667 0.1843
111.5833 0.1843
111.6000 0.1843
111.6167 0.1843
111.6333 0.1842
111.6500 0.1842
111.6667 0.1842
111.6833 0.1842
111.7000 0.1841
111.7167 0.1841
111.7333 0.1841
111.7500 0.1841
111.7667 0.1840
111.7833 0.1840
111.8000 0.1840
111.8167 0.1840
111.8333 0.1839
111.8500 0.1839
111.8667 0.1839
111.8833 0.1839
111.9000 0.1838
111.9167 0.1838
111.9333 0.1838
111.9500 0.1838
111.9667 0.1837
111.9833 0.1837
112.0000 0.1837
112.0167 0.1837
112.0333 0.1836
112.0500 0.1836
112.0667 0.1836
112.0833 0.1836
112.1000 0.1835
112.1167 0.1835
112.1333 0.1835
112.1500 0.1835
112.1667 0.1834
112.1833 0.1834
112.2000 0.1834
112.2167 0.1834
112.2333 0.1833
112.2500 0.1833
112.2667 0.1833
112.2833 0.1833
112.3000 0.1832
112.3167 0.1832
112.3333 0.1832
112.3500 0.1832
112.3667 0.1832
112.3833 0.1831
112.4000 0.1831
112.4167 0.1831
112.4333 0.1831
112.4500 0.1830
112.4667 0.1830
112.4833 0.1830
112.5000 0.1830
112.5167 0.1829
112.5333 0.1829
112.5500 0.1829
112.5667 0.1829
112.5833 0.1828
112.6000 0.1828
112.6167 0.1828
112.6333 0.1828
112.6500 0.1827
112.6667 0.1827
112.6833 0.1827
112.7000 0.1827
112.7167 0.1826
112.7333 0.1826
112.7500 0.1826
112.7667 0.1826
112.7833 0.1825
112.8000 0.1825
112.8167 0.1825
112.8333 0.1825
112.8500 0.1824
112.8667 0.1824
112.8833 0.1824
112.9000 0.1824
112.9167 0.1823
112.9333 0.1823
112.9500 0.1823
112.9667 0.1823
112.9833 0.1823
113.0000 0.1822
113.0167 0.1822
113.0333 0.1822
113.0500 0.1822
113.0667 0.1821
113.0833 0.1821
113.1000 0.1821
113.1167 0.1821
113.1333 0.1820
113.1500 0.1820
113.1667 0.1820
113.1833 0.1820
113.2000 0.1819
113.2167 0.1819
113.2333 0.1819
113.2500 0.1819
113.2667 0.1818
113.2833 0.1818
113.3000 0.1818
113.3167 0.1818
113.3333 0.1817
113.3500 0.1817
113.3667 0.1817
113.3833 0.1817
113.4000 0.1816
113.4167 0.1816
113.4333 0.1816
113.4500 0.1816
113.4667 0.1815
113.4833 0.1815
113.5000 0.1815
113.5167 0.1815
113.5333 0.1815
113.5500 0.1814
113.5667 0.1814
113.5833 0.1814
113.6000 0.1814
113.6167 0.1813
113.6333 0.1813
113.6500 0.1813
113.6667 0.1813
113.6833 0.1812
113.7000 0.1812
113.7167 0.1812
113.7333 0.1812
113.7500 0.1811
113.7667 0.1811
113.7833 0.1811
113.8000 0.1811
113.8167 0.1810
113.8333 0.1810
113.8500 0.1810
113.8667 0.1810
113.8833 0.1809
113.9000 0.1809
113.9167 0.1809
113.9333 0.1809
113.9500 0.1808
113.9667 0.1808
113.9833 0.1808
114.0000 0.1808
114.0167 0.1807
114.0333 0.1807
114.0500 0.1807
114.0667 0.1807
114.0833 0.1807
114.1000 0.1806
114.1167 0.1806
114.1333 0.1806
114.1500 0.1806
114.1667 0.1805
114.1833 0.1805
114.2000 0.1805
114.2167 0.1805
114.2333 0.1804
114.2500 0.1804
114.2667 0.1804
114.2833 0.1804
114.3000 0.1803
114.3167 0.1803
114.3333 0.1803
114.3500 0.1803
114.3667 0.1802
114.3833 0.1802
114.4000 0.1802
114.4167 0.1802
114.4333 0.1801
114.4500 0.1801
114.4667 0.1801
114.4833 0.1801
114.5000 0.1801
114.5167 0.1800
114.5333 0.1800
114.5500 0.1800
114.5667 0.1800
114.5833 0.1799
114.6000 0.1799
114.6167 0.1799
114.6333 0.1799
114.6500 0.1798
114.6667 0.1798
114.6833 0.1798
114.7000 0.1798
114.7167 0.1797
114.7333 0.1797
114.7500 0.1797
114.7667 0.1797
114.7833 0.1796
114.8000 0.1796
114.8167 0.1796
114.8333 0.1796
114.8500 0.1795
114.8667 0.1795
114.8833 0.1795
114.9000 0.1795
114.9167 0.1795
114.9333 0.1794
114.9500 0.1794
114.9667 0.1794
114.9833 0.1794
115.0000 0.1793
115.0167 0.1793
115.0333 0.1793
115.0500 0.1793
115.0667 0.1792
115.0833 0.1792
115.1000 0.1792
115.1167 0.1792
115.1333 0.1791
115.1500 0.1791
115.1667 0.1791
115.1833 0.1791
115.2000 0.1790
115.2167 0.1790
115.2333 0.1790
115.2500 0.1790
115.2667 0.1790
115.2833 0.1789
115.3000 0.1789
115.3167 0.1789
115.3333 0.1789
115.3500 0.1788
115.3667 0.1788
115.3833 0.1788
115.4000 0.1788
115.4167 0.1787
115.4333 0.1787
115.4500 0.1787
115.4667 0.1787
115.4833 0.1786
115.5000 0.1786
115.5167 0.1786
115.5333 0.1786
115.5500 0.1785
115.5667 0.1785
115.5833 0.1785
115.6000 0.1785
115.6167 0.1785
115.6333 0.1784
115.6500 0.1784
115.6667 0.1784
115.6833 0.1784
115.7000 0.1783
115.7167 0.1783
115.7333 0.1783
115.7500 0.1783
115.7667 0.1782
115.7833 0.1782
115.8000 0.1782
115.8167 0.1782
115.8333 0.1781
115.8500 0.1781
115.8667 0.1781
115.8833 0.1781
115.9000 0.1780
115.9167 0.1780
115.9333 0.1780
115.9500 0.1780
115.9667 0.1780
115.9833 0.1779
116.0000 0.1779
116.0167 0.1779
116.0333 0.1779
116.0500 0.1778
116.0667 0.1778
116.0833 0.1778
116.1000 0.1778
116.1167 0.1777
116.1333 0.1777
116.1500 0.1777
116.1667 0.1777
116.1833 0.1776
116.2000 0.1776
116.2167 0.1776
116.2333 0.1776
116.2500 0.1775
116.2667 0.1775
116.2833 0.1775
116.3000 0.1775
116.3167 0.1775
116.3333 0.1774
116.3500 0.1774
116.3667 0.1774
116.3833 0.1774
116.4000 0.1773
116.4167 0.1773
116.4333 0.1773
116.4500 0.1773
116.4667 0.1772
116.4833 0.1772
116.5000 0.1772
116.5167 0.1772
116.5333 0.1771
116.5500 0.1771
116.5667 0.1771
116.5833 0.1771
116.6000 0.1771
116.6167 0.1770
116.6333 0.1770
116.6500 0.1770
116.6667 0.1770
116.6833 0.1769
116.7000 0.1769
116.7167 0.1769
116.7333 0.1769
116.7500 0.1768
116.7667 0.1768
116.7833 0.1768
116.8000 0.1768
116.8167 0.1767
116.8333 0.1767
116.8500 0.1767
116.8667 0.1767
116.8833 0.1767
116.9000 0.1766
116.9167 0.1766
116.9333 0.1766
116.9500 0.1766
116.9667 0.1765
116.9833 0.1765
117.0000 0.1765
117.0167 0.1765
117.0333 0.1764
117.0500 0.1764
117.0667 0.1764
117.0833 0.1764
117.1000 0.1763
117.1167 0.1763
117.1333 0.1763
117.1500 0.1763
117.1667 0.1763
117.1833 0.1762
117.2000 0.1762
117.2167 0.1762
117.2333 0.1762
117.2500 0.1761
117.2667 0.1761
117.2833 0.1761
117.3000 0.1761
117.3167 0.1760
117.3333 0.1760
117.3500 0.1760
117.3667 0.1760
117.3833 0.1759
117.4000 0.1759
117.4167 0.1759
117.4333 0.1759
117.4500 0.1759
117.4667 0.1758
117.4833 0.1758
117.5000 0.1758
117.5167 0.1758
117.5333 0.1757
117.5500 0.1757
117.5667 0.1757
117.5833 0.1757
117.6000 0.1756
117.6167 0.1756
117.6333 0.1756
117.6500 0.1756
117.6667 0.1755
117.6833 0.1755
117.7000 0.1755
117.7167 0.1755
117.7333 0.1755
117.7500 0.1754
117.7667 0.1754
117.7833 0.1754
117.8000 0.1754
117.8167 0.1753
117.8333 0.1753
117.8500 0.1753
117.8667 0.1753
117.8833 0.1752
117.9000 0.1752
117.9167 0.1752
117.9333 0.1752
117.9500 0.1752
117.9667 0.1751
117.9833 0.1751
118.0000 0.1751
118.0167 0.1751
118.0333 0.1750
118.0500 0.1750
118.0667 0.1750
118.0833 0.1750
118.1000 0.1749
118.1167 0.1749
118.1333 0.1749
118.1500 0.1749
118.1667 0.1748
118.1833 0.1748
118.2000 0.1748
118.2167 0.1748
118.2333 0.1748
118.2500 0.1747
118.2667 0.1747
118.2833 0.1747
118.3000 0.1747
118.3167 0.1746
118.3333 0.1746
118.3500 0.1746
118.3667 0.1746
118.3833 0.1745
118.4000 0.1745
118.4167 0.1745
118.4333 0.1745
118.4500 0.1745
118.4667 0.1744
118.4833 0.1744
118.5000 0.1744
118.5167 0.1744
118.5333 0.1743
118.5500 0.1743
118.5667 0.1743
118.5833 0.1743
118.6000 0.1742
118.6167 0.1742
118.6333 0.1742
118.6500 0.1742
118.6667 0.1741
118.6833 0.1741
118.7000 0.1741
118.7167 0.1741
118.7333 0.1741
118.7500 0.1740
118.7667 0.1740
118.7833 0.1740
118.8000 0.1740
118.8167 0.1739
118.8333 0.1739
118.8500 0.1739
118.8667 0.1739
118.8833 0.1738
118.9000 0.1738
118.9167 0.1738
118.9333 0.1738
118.9500 0.1738
118.9667 0.1737
118.9833 0.1737
119.0000 0.1737
119.0167 0.1737
119.0333 0.1736
119.0500 0.1736
119.0667 0.1736
119.0833 0.1736
119.1000 0.1735
119.1167 0.1735
119.1333 0.1735
119.1500 0.1735
119.1667 0.1735
119.1833 0.1734
119.2000 0.1734
119.2167 0.1734
119.2333 0.1734
119.2500 0.1733
119.2667 0.1733
119.2833 0.1733
119.3000 0.1733
119.3167 0.1732
119.3333 0.1732
119.3500 0.1732
119.3667 0.1732
119.3833 0.1732
119.4000 0.1731
119.4167 0.1731
119.4333 0.1731
119.4500 0.1731
119.4667 0.1730
119.4833 0.1730
119.5000 0.1730
119.5167 0.1730
119.5333 0.1729
119.5500 0.1729
119.5667 0.1729
119.5833 0.1729
119.6000 0.1729
119.6167 0.1728
119.6333 0.1728
119.6500 0.1728
119.6667 0.1728
119.6833 0.1727
119.7000 0.1727
119.7167 0.1727
119.7333 0.1727
119.7500 0.1726
119.7667 0.1726
119.7833 0.1726
119.8000 0.1726
119.8167 0.1726
119.8333 0.1725
119.8500 0.1725
119.8667 0.1725
119.8833 0.1725
119.9000 0.1724
119.9167 0.1724
119.9333 0.1724
119.9500 0.1724
119.9667 0.1723
119.9833 0.1723
120.0000 0.1723
