time [s] Activity [arb units]
0.0000 0.0000
0.5000 2.3576
1.0000 1.7167
1.5000 1.3339
2.0000 1.1123
2.5000 0.9581
3.0000 0.8412
3.5000 0.7504
4.0000 0.6794
4.5000 0.6238
5.0000 1.0801
5.5000 1.5457
6.0000 1.5185
6.5000 1.4970
7.0000 1.4798
7.5000 1.4661
8.0000 1.4551
8.5000 1.4461
9.0000 1.4387
9.5000 1.4326
10.0000 0.9275
10.5000 0.4232
11.0000 0.4194
11.5000 0.4162
12.0000 0.4133
12.5000 0.4107
13.0000 0.4083
13.5000 0.4060
14.0000 0.4040
14.5000 0.4020
15.0000 0.4001
15.5000 0.3983
16.0000 0.3965
16.5000 0.3948
17.0000 0.3931
17.5000 0.3915
18.0000 0.3899
18.5000 0.3883
19.0000 0.3867
19.5000 0.3851
20.0000 0.3835
20.5000 0.3820
21.0000 0.3805
21.5000 0.3789
22.0000 0.3774
22.5000 0.3759
23.0000 0.3744
23.5000 0.3729
24.0000 0.3714
24.5000 0.3699
25.0000 0.3684
25.5000 0.3670
26.0000 0.3655
26.5000 0.3640
27.0000 0.3626
27.5000 0.3611
28.0000 0.3597
28.5000 0.3583
29.0000 0.3568
29.5000 0.3554
30.0000 0.8540
30.5000 1.3526
31.0000 1.3512
31.5000 1.3498
32.0000 1.3484
32.5000 1.3470
33.0000 1.3456
33.5000 1.3442
34.0000 1.3428
34.5000 1.3415
35.0000 0.8401
35.5000 0.3387
36.0000 0.3374
36.5000 0.3360
37.0000 0.3347
37.5000 0.3334
38.0000 0.3320
38.5000 0.3307
39.0000 0.3294
39.5000 0.3281
40.0000 0.3268
40.5000 0.3255
41.0000 0.3242
41.5000 0.3229
42.0000 0.3216
42.5000 0.3203
43.0000 0.3190
43.5000 0.3177
44.0000 0.3165
44.5000 0.3152
45.0000 0.3140
45.5000 0.3127
46.0000 0.3115
46.5000 0.3102
47.0000 0.3090
47.5000 0.3077
48.0000 0.3065
48.5000 0.3053
49.0000 0.3041
49.5000 0.3029
50.0000 0.3016
50.5000 0.3004
51.0000 0.2992
51.5000 0.2980
52.0000 0.2969
52.5000 0.2957
53.0000 0.2945
53.5000 0.2933
54.0000 0.2921
54.5000 0.2910
55.0000 0.7898
55.5000 1.2887
56.0000 1.2875
56.5000 1.2864
57.0000 1.2852
57.5000 1.2841
58.0000 1.2829
58.5000 1.2818
59.0000 1.2807
59.5000 1.2796
60.0000 0.7785
60.5000 0.2773
61.0000 0.2762
61.5000 0.2751
62.0000 0.2740
62.5000 0.2729
63.0000 0.2718
63.5000 0.2708
64.0000 0.2697
64.5000 0.2686
65.0000 0.2675
65.5000 0.2665
66.0000 0.2654
66.5000 0.2643
67.0000 0.2633
67.5000 0.2622
68.0000 0.2612
68.5000 0.2601
69.0000 0.2591
69.5000 0.2581
70.0000 0.2570
70.5000 0.2560
71.0000 0.2550
71.5000 0.2540
72.0000 0.2530
72.5000 0.2520
73.0000 0.2509
73.5000 0.2499
74.0000 0.2489
74.5000 0.2480
75.0000 0.2470
75.5000 0.2460
76.0000 0.2450
76.5000 0.2440
77.0000 0.2430
77.5000 0.2421
78.0000 0.2411
78.5000 0.2401
79.0000 0.2392
79.5000 0.2382
80.0000 0.2373
80.5000 0.2363
81.0000 0.2354
81.5000 0.2345
82.0000 0.2335
82.5000 0.2326
83.0000 0.2317
83.5000 0.2307
84.0000 0.2298
84.5000 0.2289
85.0000 0.2280
85.5000 0.2271
86.0000 0.2262
86.5000 0.2253
87.0000 0.2244
87.5000 0.2235
88.0000 0.2226
88.5000 0.2217
89.0000 0.2208
89.5000 0.2199
90.0000 0.2190
90.5000 0.2182
91.0000 0.2173
91.5000 0.2164
92.0000 0.2156
92.5000 0.2147
93.0000 0.2138
93.5000 0.2130
94.0000 0.2121
94.5000 0.2113
95.0000 0.2104
95.5000 0.2096
96.0000 0.2088
96.5000 0.2079
97.0000 0.2071
97.5000 0.2063
98.0000 0.2055
98.5000 0.2046
99.0000 0.2038
99.5000 0.2030
100.0000 0.2022
100.5000 0.2014
101.0000 0.2006
101.5000 0.1998
102.0000 0.1990
102.5000 0.1982
103.0000 0.1974
103.5000 0.1966
104.0000 0.1958
104.5000 0.1950
105.0000 0.1943
105.5000 0.1935
106.0000 0.1927
106.5000 0.1920
107.0000 0.1912
107.5000 0.1904
108.0000 0.1897
108.5000 0.1889
109.0000 0.1882
109.5000 0.1874
110.0000 0.1867
110.5000 0.1859
111.0000 0.1852
111.5000 0.1844
112.0000 0.1837
112.5000 0.1830
113.0000 0.1822
113.5000 0.1815
114.0000 0.1808
114.5000 0.1801
115.0000 0.1793
115.5000 0.1786
116.0000 0.1779
116.5000 0.1772
117.0000 0.1765
117.5000 0.1758
118.0000 0.1751
118.5000 0.1744
119.0000 0.1737
119.5000 0.1730
120.0000 0.1723
