time [s] Activity [arb units]
0.0000 0.0000
0.0167 0.0002
0.0333 0.0003
0.0500 0.0005
0.0667 0.0007
0.0833 0.0008
0.1000 0.0010
0.1167 0.0012
0.1333 0.0013
0.1500 0.0015
0.1667 0.0017
0.1833 0.0018
0.2000 0.0020
0.2167 0.0022
0.2333 0.0023
0.2500 0.0025
0.2667 0.0027
0.2833 0.0028
0.3000 0.0030
0.3167 0.0032
0.3333 0.0033
0.3500 0.0035
0.3667 0.0037
0.3833 0.0038
0.4000 0.0040
0.4167 0.0042
0.4333 0.0043
0.4500 0.0045
0.4667 0.0047
0.4833 0.0048
0.5000 0.0050
0.5167 0.0052
0.5333 0.0053
0.5500 0.0055
0.5667 0.0057
0.5833 0.0058
0.6000 0.0060
0.6167 0.0062
0.6333 0.0063
0.6500 0.0065
0.6667 0.0067
0.6833 0.0068
0.7000 0.0070
0.7167 0.0072
0.7333 0.0073
0.7500 0.0075
0.7667 0.0077
0.7833 0.0078
0.8000 0.0080
0.8167 0.0082
0.8333 0.0083
0.8500 0.0085
0.8667 0.0087
0.8833 0.0088
0.9000 0.0090
0.9167 0.0092
0.9333 0.0093
0.9500 0.0095
0.9667 0.0097
0.9833 0.0098
1.0000 0.0100
1.0167 0.0102
1.0333 0.0103
1.0500 0.0105
1.0667 0.0107
1.0833 0.0108
1.1000 0.0110
1.1167 0.0112
1.1333 0.0113
1.1500 0.0115
1.1667 0.0117
1.1833 0.0118
1.2000 0.0120
1.2167 0.0122
1.2333 0.0123
1.2500 0.0125
1.2667 0.0127
1.2833 0.0128
1.3000 0.0130
1.3167 0.0132
1.3333 0.0133
1.3500 0.0135
1.3667 0.0137
1.3833 0.0138
1.4000 0.0140
1.4167 0.0142
1.4333 0.0143
1.4500 0.0145
1.4667 0.0147
1.4833 0.0148
1.5000 0.0150
1.5167 0.0152
1.5333 0.0153
1.5500 0.0155
1.5667 0.0157
1.5833 0.0158
1.6000 0.0160
1.6167 0.0162
1.6333 0.0163
1.6500 0.0165
1.6667 0.0167
1.6833 0.0168
1.7000 0.0170
1.7167 0.0172
1.7333 0.0173
1.7500 0.0175
1.7667 0.0177
1.7833 0.0178
1.8000 0.0180
1.8167 0.0182
1.8333 0.0183
1.8500 0.0185
1.8667 0.0187
1.8833 0.0188
1.9000 0.0190
1.9167 0.0192
1.9333 0.0193
1.9500 0.0195
1.9667 0.0197
1.9833 0.0198
2.0000 0.0200
2.0167 0.0202
2.0333 0.0203
2.0500 0.0205
2.0667 0.0207
2.0833 0.0208
2.1000 0.0210
2.1167 0.0212
2.1333 0.0213
2.1500 0.0215
2.1667 0.0217
2.1833 0.0218
2.2000 0.0220
2.2167 0.0222
2.2333 0.0223
2.2500 0.0225
2.2667 0.0227
2.2833 0.0228
2.3000 0.0230
2.3167 0.0232
2.3333 0.0233
2.3500 0.0235
2.3667 0.0237
2.3833 0.0238
2.4000 0.0240
2.4167 0.0242
2.4333 0.0243
2.4500 0.0245
2.4667 0.0247
2.4833 0.0248
2.5000 0.0250
2.5167 0.0252
2.5333 0.0253
2.5500 0.0255
2.5667 0.0257
2.5833 0.0258
2.6000 0.0260
2.6167 0.0262
2.6333 0.0263
2.6500 0.0265
2.6667 0.0267
2.6833 0.0268
2.7000 0.0270
2.7167 0.0272
2.7333 0.0273
2.7500 0.0275
2.7667 0.0277
2.7833 0.0278
2.8000 0.0280
2.8167 0.0282
2.8333 0.0283
2.8500 0.0285
2.8667 0.0287
2.8833 0.0288
2.9000 0.0290
2.9167 0.0292
2.9333 0.0293
2.9500 0.0295
2.9667 0.0297
2.9833 0.0298
3.0000 0.0300
3.0167 0.0302
3.0333 0.0303
3.0500 0.0305
3.0667 0.0307
3.0833 0.0308
3.1000 0.0310
3.1167 0.0312
3.1333 0.0313
3.1500 0.0315
3.1667 0.0317
3.1833 0.0318
3.2000 0.0320
3.2167 0.0322
3.2333 0.0323
3.2500 0.0325
3.2667 0.0327
3.2833 0.0328
3.3000 0.0330
3.3167 0.0332
3.3333 0.0333
3.3500 0.0335
3.3667 0.0337
3.3833 0.0338
3.4000 0.0340
3.4167 0.0342
3.4333 0.0343
3.4500 0.0345
3.4667 0.0347
3.4833 0.0348
3.5000 0.0350
3.5167 0.0352
3.5333 0.0353
3.5500 0.0355
3.5667 0.0357
3.5833 0.0358
3.6000 0.0360
3.6167 0.0362
3.6333 0.0363
3.6500 0.0365
3.6667 0.0367
3.6833 0.0368
3.7000 0.0370
3.7167 0.0372
3.7333 0.0373
3.7500 0.0375
3.7667 0.0377
3.7833 0.0378
3.8000 0.0380
3.8167 0.0382
3.8333 0.0383
3.8500 0.0385
3.8667 0.0387
3.8833 0.0388
3.9000 0.0390
3.9167 0.0392
3.9333 0.0393
3.9500 0.0395
3.9667 0.0397
3.9833 0.0398
4.0000 0.0400
4.0167 0.0402
4.0333 0.0403
4.0500 0.0405
4.0667 0.0407
4.0833 0.0408
4.1000 0.0410
4.1167 0.0412
4.1333 0.0413
4.1500 0.0415
4.1667 0.0417
4.1833 0.0418
4.2000 0.0420
4.2167 0.0422
4.2333 0.0423
4.2500 0.0425
4.2667 0.0427
4.2833 0.0428
4.3000 0.0430
4.3167 0.0432
4.3333 0.0433
4.3500 0.0435
4.3667 0.0437
4.3833 0.0438
4.4000 0.0440
4.4167 0.0442
4.4333 0.0443
4.4500 0.0445
4.4667 0.0447
4.4833 0.0448
4.5000 0.0450
4.5167 0.0452
4.5333 0.0453
4.5500 0.0455
4.5667 0.0457
4.5833 0.0458
4.6000 0.0460
4.6167 0.0462
4.6333 0.0463
4.6500 0.0465
4.6667 0.0467
4.6833 0.0468
4.7000 0.0470
4.7167 0.0472
4.7333 0.0473
4.7500 0.0475
4.7667 0.0477
4.7833 0.0478
4.8000 0.0480
4.8167 0.0482
4.8333 0.0483
4.8500 0.0485
4.8667 0.0487
4.8833 0.0488
4.9000 0.0490
4.9167 0.0492
4.9333 0.0493
4.9500 0.0495
4.9667 0.0497
4.9833 0.0498
5.0000 0.0408
5.0167 0.0318
5.0333 0.0228
5.0500 0.0138
5.0667 0.0048
5.0833 -0.0042
5.1000 -0.0132
5.1167 -0.0222
5.1333 -0.0312
5.1500 -0.0402
5.1667 -0.0492
5.1833 -0.0582
5.2000 -0.0672
5.2167 -0.0762
5.2333 -0.0852
5.2500 -0.0942
5.2667 -0.1032
5.2833 -0.1122
5.3000 -0.1212
5.3167 -0.1302
5.3333 -0.1392
5.3500 -0.1482
5.3667 -0.1572
5.3833 -0.1662
5.4000 -0.1752
5.4167 -0.1842
5.4333 -0.1932
5.4500 -0.2022
5.4667 -0.2112
5.4833 -0.2202
5.5000 -0.2102
5.5167 -0.2002
5.5333 -0.1902
5.5500 -0.1802
5.5667 -0.1702
5.5833 -0.1602
5.6000 -0.1502
5.6167 -0.1402
5.6333 -0.1302
5.6500 -0.1202
5.6667 -0.1102
5.6833 -0.1002
5.7000 -0.0902
5.7167 -0.0802
5.7333 -0.0702
5.7500 -0.0602
5.7667 -0.0502
5.7833 -0.0402
5.8000 -0.0302
5.8167 -0.0202
5.8333 -0.0102
5.8500 -0.0002
5.8667 0.0098
5.8833 0.0198
5.9000 0.0298
5.9167 0.0398
5.9333 0.0498
5.9500 0.0598
5.9667 0.0698
5.9833 0.0798
6.0000 0.0708
6.0167 0.0618
6.0333 0.0528
6.0500 0.0438
6.0667 0.0348
6.0833 0.0258
6.1000 0.0168
6.1167 0.0078
6.1333 -0.0012
6.1500 -0.0102
6.1667 -0.0192
6.1833 -0.0282
6.2000 -0.0372
6.2167 -0.0462
6.2333 -0.0552
6.2500 -0.0642
6.2667 -0.0732
6.2833 -0.0822
6.3000 -0.0912
6.3167 -0.1002
6.3333 -0.1092
6.3500 -0.1182
6.3667 -0.1272
6.3833 -0.1362
6.4000 -0.1452
6.4167 -0.1542
6.4333 -0.1632
6.4500 -0.1722
6.4667 -0.1812
6.4833 -0.1902
6.5000 -0.1802
6.5167 -0.1702
6.5333 -0.1602
6.5500 -0.1502
6.5667 -0.1402
6.5833 -0.1302
6.6000 -0.1202
6.6167 -0.1102
6.6333 -0.1002
6.6500 -0.0902
6.6667 -0.0802
6.6833 -0.0702
6.7000 -0.0602
6.7167 -0.0502
6.7333 -0.0402
6.7500 -0.0302
6.7667 -0.0202
6.7833 -0.0102
6.8000 -0.0002
6.8167 0.0098
6.8333 0.0198
6.8500 0.0298
6.8667 0.0398
6.8833 0.0498
6.9000 0.0598
6.9167 0.0698
6.9333 0.0798
6.9500 0.0898
6.9667 0.0998
6.9833 0.1098
7.0000 0.1008
7.0167 0.0918
7.0333 0.0828
7.0500 0.0738
7.0667 0.0648
7.0833 0.0558
7.1000 0.0468
7.1167 0.0378
7.1333 0.0288
7.1500 0.0198
7.1667 0.0108
7.1833 0.0018
7.2000 -0.0072
7.2167 -0.0162
7.2333 -0.0252
7.2500 -0.0342
7.2667 -0.0432
7.2833 -0.0522
7.3000 -0.0612
7.3167 -0.0702
7.3333 -0.0792
7.3500 -0.0882
7.3667 -0.0972
7.3833 -0.1062
7.4000 -0.1152
7.4167 -0.1242
7.4333 -0.1332
7.4500 -0.1422
7.4667 -0.1512
7.4833 -0.1602
7.5000 -0.1502
7.5167 -0.1402
7.5333 -0.1302
7.5500 -0.1202
7.5667 -0.1102
7.5833 -0.1002
7.6000 -0.0902
7.6167 -0.0802
7.6333 -0.0702
7.6500 -0.0602
7.6667 -0.0502
7.6833 -0.0402
7.7000 -0.0302
7.7167 -0.0202
7.7333 -0.0102
7.7500 -0.0002
7.7667 0.0098
7.7833 0.0198
7.8000 0.0298
7.8167 0.0398
7.8333 0.0498
7.8500 0.0598
7.8667 0.0698
7.8833 0.0798
7.9000 0.0898
7.9167 0.0998
7.9333 0.1098
7.9500 0.1198
7.9667 0.1298
7.9833 0.1398
8.0000 0.1308
8.0167 0.1218
8.0333 0.1128
8.0500 0.1038
8.0667 0.0948
8.0833 0.0858
8.1000 0.0768
8.1167 0.0678
8.1333 0.0588
8.1500 0.0498
8.1667 0.0408
8.1833 0.0318
8.2000 0.0228
8.2167 0.0138
8.2333 0.0048
8.2500 -0.0042
8.2667 -0.0132
8.2833 -0.0222
8.3000 -0.0312
8.3167 -0.0402
8.3333 -0.0492
8.3500 -0.0582
8.3667 -0.0672
8.3833 -0.0762
8.4000 -0.0852
8.4167 -0.0942
8.4333 -0.1032
8.4500 -0.1122
8.4667 -0.1212
8.4833 -0.1302
8.5000 -0.1202
8.5167 -0.1102
8.5333 -0.1002
8.5500 -0.0902
8.5667 -0.0802
8.5833 -0.0702
8.6000 -0.0602
8.6167 -0.0502
8.6333 -0.0402
8.6500 -0.0302
8.6667 -0.0202
8.6833 -0.0102
8.7000 -0.0002
8.7167 0.0098
8.7333 0.0198
8.7500 0.0298
8.7667 0.0398
8.7833 0.0498
8.8000 0.0598
8.8167 0.0698
8.8333 0.0798
8.8500 0.0898
8.8667 0.0998
8.8833 0.1098
8.9000 0.1198
8.9167 0.1298
8.9333 0.1398
8.9500 0.1498
8.9667 0.1598
8.9833 0.1698
9.0000 0.1608
9.0167 0.1518
9.0333 0.1428
9.0500 0.1338
9.0667 0.1248
9.0833 0.1158
9.1000 0.1068
9.1167 0.0978
9.1333 0.0888
9.1500 0.0798
9.1667 0.0708
9.1833 0.0618
9.2000 0.0528
9.2167 0.0438
9.2333 0.0348
9.2500 0.0258
9.2667 0.0168
9.2833 0.0078
9.3000 -0.0012
9.3167 -0.0102
9.3333 -0.0192
9.3500 -0.0282
9.3667 -0.0372
9.3833 -0.0462
9.4000 -0.0552
9.4167 -0.0642
9.4333 -0.0732
9.4500 -0.0822
9.4667 -0.0912
9.4833 -0.1002
9.5000 -0.0902
9.5167 -0.0802
9.5333 -0.0702
9.5500 -0.0602
9.5667 -0.0502
9.5833 -0.0402
9.6000 -0.0302
9.6167 -0.0202
9.6333 -0.0102
9.6500 -0.0002
9.6667 0.0098
9.6833 0.0198
9.7000 0.0298
9.7167 0.0398
9.7333 0.0498
9.7500 0.0598
9.7667 0.0698
9.7833 0.0798
9.8000 0.0898
9.8167 0.0998
9.8333 0.1098
9.8500 0.1198
9.8667 0.1298
9.8833 0.1398
9.9000 0.1498
9.9167 0.1598
9.9333 0.1698
9.9500 0.1798
9.9667 0.1898
9.9833 0.1998
10.0000 0.1908
10.0167 0.1818
10.0333 0.1728
10.0500 0.1638
10.0667 0.1548
10.0833 0.1458
10.1000 0.1368
10.1167 0.1278
10.1333 0.1188
10.1500 0.1098
10.1667 0.1008
10.1833 0.0918
10.2000 0.0828
10.2167 0.0738
10.2333 0.0648
10.2500 0.0558
10.2667 0.0468
10.2833 0.0378
10.3000 0.0288
10.3167 0.0198
10.3333 0.0108
10.3500 0.0018
10.3667 -0.0072
10.3833 -0.0162
10.4000 -0.0252
10.4167 -0.0342
10.4333 -0.0432
10.4500 -0.0522
10.4667 -0.0612
10.4833 -0.0702
10.5000 -0.0602
10.5167 -0.0502
10.5333 -0.0402
10.5500 -0.0302
10.5667 -0.0202
10.5833 -0.0102
10.6000 -0.0002
10.6167 0.0098
10.6333 0.0198
10.6500 0.0298
10.6667 0.0398
10.6833 0.0498
10.7000 0.0598
10.7167 0.0698
10.7333 0.0798
10.7500 0.0898
10.7667 0.0998
10.7833 0.1098
10.8000 0.1198
10.8167 0.1298
10.8333 0.1398
10.8500 0.1498
10.8667 0.1598
10.8833 0.1698
10.9000 0.1798
10.9167 0.1898
10.9333 0.1998
10.9500 0.2098
10.9667 0.2198
10.9833 0.2298
11.0000 0.2208
11.0167 0.2118
11.0333 0.2028
11.0500 0.1938
11.0667 0.1848
11.0833 0.1758
11.1000 0.1668
11.1167 0.1578
11.1333 0.1488
11.1500 0.1398
11.1667 0.1308
11.1833 0.1218
11.2000 0.1128
11.2167 0.1038
11.2333 0.0948
11.2500 0.0858
11.2667 0.0768
11.2833 0.0678
11.3000 0.0588
11.3167 0.0498
11.3333 0.0408
11.3500 0.0318
11.3667 0.0228
11.3833 0.0138
11.4000 0.0048
11.4167 -0.0042
11.4333 -0.0132
11.4500 -0.0222
11.4667 -0.0312
11.4833 -0.0402
11.5000 -0.0302
11.5167 -0.0202
11.5333 -0.0102
11.5500 -0.0002
11.5667 0.0098
11.5833 0.0198
11.6000 0.0298
11.6167 0.0398
11.6333 0.0498
11.6500 0.0598
11.6667 0.0698
11.6833 0.0798
11.7000 0.0898
11.7167 0.0998
11.7333 0.1098
11.7500 0.1198
11.7667 0.1298
11.7833 0.1398
11.8000 0.1498
11.8167 0.1598
11.8333 0.1698
11.8500 0.1798
11.8667 0.1898
11.8833 0.1998
11.9000 0.2098
11.9167 0.2198
11.9333 0.2298
11.9500 0.2398
11.9667 0.2498
11.9833 0.2598
12.0000 0.2508
12.0167 0.2418
12.0333 0.2328
12.0500 0.2238
12.0667 0.2148
12.0833 0.2058
12.1000 0.1968
12.1167 0.1878
12.1333 0.1788
12.1500 0.1698
12.1667 0.1608
12.1833 0.1518
12.2000 0.1428
12.2167 0.1338
12.2333 0.1248
12.2500 0.1158
12.2667 0.1068
12.2833 0.0978
12.3000 0.0888
12.3167 0.0798
12.3333 0.0708
12.3500 0.0618
12.3667 0.0528
12.3833 0.0438
12.4000 0.0348
12.4167 0.0258
12.4333 0.0168
12.4500 0.0078
12.4667 -0.0012
12.4833 -0.0102
12.5000 -0.0002
12.5167 0.0098
12.5333 0.0198
12.5500 0.0298
12.5667 0.0398
12.5833 0.0498
12.6000 0.0598
12.6167 0.0698
12.6333 0.0798
12.6500 0.0898
12.6667 0.0998
12.6833 0.1098
12.7000 0.1198
12.7167 0.1298
12.7333 0.1398
12.7500 0.1498
12.7667 0.1598
12.7833 0.1698
12.8000 0.1798
12.8167 0.1898
12.8333 0.1998
12.8500 0.2098
12.8667 0.2198
12.8833 0.2298
12.9000 0.2398
12.9167 0.2498
12.9333 0.2598
12.9500 0.2698
12.9667 0.2798
12.9833 0.2898
13.0000 0.2808
13.0167 0.2718
13.0333 0.2628
13.0500 0.2538
13.0667 0.2448
13.0833 0.2358
13.1000 0.2268
13.1167 0.2178
13.1333 0.2088
13.1500 0.1998
13.1667 0.1908
13.1833 0.1818
13.2000 0.1728
13.2167 0.1638
13.2333 0.1548
13.2500 0.1458
13.2667 0.1368
13.2833 0.1278
13.3000 0.1188
13.3167 0.1098
13.3333 0.1008
13.3500 0.0918
13.3667 0.0828
13.3833 0.0738
13.4000 0.0648
13.4167 0.0558
13.4333 0.0468
13.4500 0.0378
13.4667 0.0288
13.4833 0.0198
13.5000 0.0298
13.5167 0.0398
13.5333 0.0498
13.5500 0.0598
13.5667 0.0698
13.5833 0.0798
13.6000 0.0898
13.6167 0.0998
13.6333 0.1098
13.6500 0.1198
13.6667 0.1298
13.6833 0.1398
13.7000 0.1498
13.7167 0.1598
13.7333 0.1698
13.7500 0.1798
13.7667 0.1898
13.7833 0.1998
13.8000 0.2098
13.8167 0.2198
13.8333 0.2298
13.8500 0.2398
13.8667 0.2498
13.8833 0.2598
13.9000 0.2698
13.9167 0.2798
13.9333 0.2898
13.9500 0.2998
13.9667 0.3098
13.9833 0.3198
14.0000 0.3108
14.0167 0.3018
14.0333 0.2928
14.0500 0.2838
14.0667 0.2748
14.0833 0.2658
14.1000 0.2568
14.1167 0.2478
14.1333 0.2388
14.1500 0.2298
14.1667 0.2208
14.1833 0.2118
14.2000 0.2028
14.2167 0.1938
14.2333 0.1848
14.2500 0.1758
14.2667 0.1668
14.2833 0.1578
14.3000 0.1488
14.3167 0.1398
14.3333 0.1308
14.3500 0.1218
14.3667 0.1128
14.3833 0.1038
14.4000 0.0948
14.4167 0.0858
14.4333 0.0768
14.4500 0.0678
14.4667 0.0588
14.4833 0.0498
14.5000 0.0598
14.5167 0.0698
14.5333 0.0798
14.5500 0.0898
14.5667 0.0998
14.5833 0.1098
14.6000 0.1198
14.6167 0.1298
14.6333 0.1398
14.6500 0.1498
14.6667 0.1598
14.6833 0.1698
14.7000 0.1798
14.7167 0.1898
14.7333 0.1998
14.7500 0.2098
14.7667 0.2198
14.7833 0.2298
14.8000 0.2398
14.8167 0.2498
14.8333 0.2598
14.8500 0.2698
14.8667 0.2798
14.8833 0.2898
14.9000 0.2998
14.9167 0.3098
14.9333 0.3198
14.9500 0.3298
14.9667 0.3398
14.9833 0.3498
15.0000 0.3408
15.0167 0.3318
15.0333 0.3228
15.0500 0.3138
15.0667 0.3048
15.0833 0.2958
15.1000 0.2868
15.1167 0.2778
15.1333 0.2688
15.1500 0.2598
15.1667 0.2508
15.1833 0.2418
15.2000 0.2328
15.2167 0.2238
15.2333 0.2148
15.2500 0.2058
15.2667 0.1968
15.2833 0.1878
15.3000 0.1788
15.3167 0.1698
15.3333 0.1608
15.3500 0.1518
15.3667 0.1428
15.3833 0.1338
15.4000 0.1248
15.4167 0.1158
15.4333 0.1068
15.4500 0.0978
15.4667 0.0888
15.4833 0.0798
15.5000 0.0898
15.5167 0.0998
15.5333 0.1098
15.5500 0.1198
15.5667 0.1298
15.5833 0.1398
15.6000 0.1498
15.6167 0.1598
15.6333 0.1698
15.6500 0.1798
15.6667 0.1898
15.6833 0.1998
15.7000 0.2098
15.7167 0.2198
15.7333 0.2298
15.7500 0.2398
15.7667 0.2498
15.7833 0.2598
15.8000 0.2698
15.8167 0.2798
15.8333 0.2898
15.8500 0.2998
15.8667 0.3098
15.8833 0.3198
15.9000 0.3298
15.9167 0.3398
15.9333 0.3498
15.9500 0.3598
15.9667 0.3698
15.9833 0.3798
16.0000 0.3708
16.0167 0.3618
16.0333 0.3528
16.0500 0.3438
16.0667 0.3348
16.0833 0.3258
16.1000 0.3168
16.1167 0.3078
16.1333 0.2988
16.1500 0.2898
16.1667 0.2808
16.1833 0.2718
16.2000 0.2628
16.2167 0.2538
16.2333 0.2448
16.2500 0.2358
16.2667 0.2268
16.2833 0.2178
16.3000 0.2088
16.3167 0.1998
16.3333 0.1908
16.3500 0.1818
16.3667 0.1728
16.3833 0.1638
16.4000 0.1548
16.4167 0.1458
16.4333 0.1368
16.4500 0.1278
16.4667 0.1188
16.4833 0.1098
16.5000 0.1198
16.5167 0.1298
16.5333 0.1398
16.5500 0.1498
16.5667 0.1598
16.5833 0.1698
16.6000 0.1798
16.6167 0.1898
16.6333 0.1998
16.6500 0.2098
16.6667 0.2198
16.6833 0.2298
16.7000 0.2398
16.7167 0.2498
16.7333 0.2598
16.7500 0.2698
16.7667 0.2798
16.7833 0.2898
16.8000 0.2998
16.8167 0.3098
16.8333 0.3198
16.8500 0.3298
16.8667 0.3398
16.8833 0.3498
16.9000 0.3598
16.9167 0.3698
16.9333 0.3798
16.9500 0.3898
16.9667 0.3998
16.9833 0.4098
17.0000 0.4008
17.0167 0.3918
17.0333 0.3828
17.0500 0.3738
17.0667 0.3648
17.0833 0.3558
17.1000 0.3468
17.1167 0.3378
17.1333 0.3288
17.1500 0.3198
17.1667 0.3108
17.1833 0.3018
17.2000 0.2928
17.2167 0.2838
17.2333 0.2748
17.2500 0.2658
17.2667 0.2568
17.2833 0.2478
17.3000 0.2388
17.3167 0.2298
17.3333 0.2208
17.3500 0.2118
17.3667 0.2028
17.3833 0.1938
17.4000 0.1848
17.4167 0.1758
17.4333 0.1668
17.4500 0.1578
17.4667 0.1488
17.4833 0.1398
17.5000 0.1498
17.5167 0.1598
17.5333 0.1698
17.5500 0.1798
17.5667 0.1898
17.5833 0.1998
17.6000 0.2098
17.6167 0.2198
17.6333 0.2298
17.6500 0.2398
17.6667 0.2498
17.6833 0.2598
17.7000 0.2698
17.7167 0.2798
17.7333 0.2898
17.7500 0.2998
17.7667 0.3098
17.7833 0.3198
17.8000 0.3298
17.8167 0.3398
17.8333 0.3498
17.8500 0.3598
17.8667 0.3698
17.8833 0.3798
17.9000 0.3898
17.9167 0.3998
17.9333 0.4098
17.9500 0.4198
17.9667 0.4298
17.9833 0.4398
18.0000 0.4308
18.0167 0.4218
18.0333 0.4128
18.0500 0.4038
18.0667 0.3948
18.0833 0.3858
18.1000 0.3768
18.1167 0.3678
18.1333 0.3588
18.1500 0.3498
18.1667 0.3408
18.1833 0.3318
18.2000 0.3228
18.2167 0.3138
18.2333 0.3048
18.2500 0.2958
18.2667 0.2868
18.2833 0.2778
18.3000 0.2688
18.3167 0.2598
18.3333 0.2508
18.3500 0.2418
18.3667 0.2328
18.3833 0.2238
18.4000 0.2148
18.4167 0.2058
18.4333 0.1968
18.4500 0.1878
18.4667 0.1788
18.4833 0.1698
18.5000 0.1798
18.5167 0.1898
18.5333 0.1998
18.5500 0.2098
18.5667 0.2198
18.5833 0.2298
18.6000 0.2398
18.6167 0.2498
18.6333 0.2598
18.6500 0.2698
18.6667 0.2798
18.6833 0.2898
18.7000 0.2998
18.7167 0.3098
18.7333 0.3198
18.7500 0.3298
18.7667 0.3398
18.7833 0.3498
18.8000 0.3598
18.8167 0.3698
18.8333 0.3798
18.8500 0.3898
18.8667 0.3998
18.8833 0.4098
18.9000 0.4198
18.9167 0.4298
18.9333 0.4398
18.9500 0.4498
18.9667 0.4598
18.9833 0.4698
19.0000 0.4608
19.0167 0.4518
19.0333 0.4428
19.0500 0.4338
19.0667 0.4248
19.0833 0.4158
19.1000 0.4068
19.1167 0.3978
19.1333 0.3888
19.1500 0.3798
19.1667 0.3708
19.1833 0.3618
19.2000 0.3528
19.2167 0.3438
19.2333 0.3348
19.2500 0.3258
19.2667 0.3168
19.2833 0.3078
19.3000 0.2988
19.3167 0.2898
19.3333 0.2808
19.3500 0.2718
19.3667 0.2628
19.3833 0.2538
19.4000 0.2448
19.4167 0.2358
19.4333 0.2268
19.4500 0.2178
19.4667 0.2088
19.4833 0.1998
19.5000 0.2098
19.5167 0.2198
19.5333 0.2298
19.5500 0.2398
19.5667 0.2498
19.5833 0.2598
19.6000 0.2698
19.6167 0.2798
19.6333 0.2898
19.6500 0.2998
19.6667 0.3098
19.6833 0.3198
19.7000 0.3298
19.7167 0.3398
19.7333 0.3498
19.7500 0.3598
19.7667 0.3698
19.7833 0.3798
19.8000 0.3898
19.8167 0.3998
19.8333 0.4098
19.8500 0.4198
19.8667 0.4298
19.8833 0.4398
19.9000 0.4498
19.9167 0.4598
19.9333 0.4698
19.9500 0.4798
19.9667 0.4898
19.9833 0.4998
20.0000 0.4908
20.0167 0.4818
20.0333 0.4728
20.0500 0.4638
20.0667 0.4548
20.0833 0.4458
20.1000 0.4368
20.1167 0.4278
20.1333 0.4188
20.1500 0.4098
20.1667 0.4008
20.1833 0.3918
20.2000 0.3828
20.2167 0.3738
20.2333 0.3648
20.2500 0.3558
20.2667 0.3468
20.2833 0.3378
20.3000 0.3288
20.3167 0.3198
20.3333 0.3108
20.3500 0.3018
20.3667 0.2928
20.3833 0.2838
20.4000 0.2748
20.4167 0.2658
20.4333 0.2568
20.4500 0.2478
20.4667 0.2388
20.4833 0.2298
20.5000 0.2398
20.5167 0.2498
20.5333 0.2598
20.5500 0.2698
20.5667 0.2798
20.5833 0.2898
20.6000 0.2998
20.6167 0.3098
20.6333 0.3198
20.6500 0.3298
20.6667 0.3398
20.6833 0.3498
20.7000 0.3598
20.7167 0.3698
20.7333 0.3798
20.7500 0.3898
20.7667 0.3998
20.7833 0.4098
20.8000 0.4198
20.8167 0.4298
20.8333 0.4398
20.8500 0.4498
20.8667 0.4598
20.8833 0.4698
20.9000 0.4798
20.9167 0.4898
20.9333 0.4998
20.9500 0.5098
20.9667 0.5198
20.9833 0.5298
21.0000 0.5208
21.0167 0.5118
21.0333 0.5028
21.0500 0.4938
21.0667 0.4848
21.0833 0.4758
21.1000 0.4668
21.1167 0.4578
21.1333 0.4488
21.1500 0.4398
21.1667 0.4308
21.1833 0.4218
21.2000 0.4128
21.2167 0.4038
21.2333 0.3948
21.2500 0.3858
21.2667 0.3768
21.2833 0.3678
21.3000 0.3588
21.3167 0.3498
21.3333 0.3408
21.3500 0.3318
21.3667 0.3228
21.3833 0.3138
21.4000 0.3048
21.4167 0.2958
21.4333 0.2868
21.4500 0.2778
21.4667 0.2688
21.4833 0.2598
21.5000 0.2698
21.5167 0.2798
21.5333 0.2898
21.5500 0.2998
21.5667 0.3098
21.5833 0.3198
21.6000 0.3298
21.6167 0.3398
21.6333 0.3498
21.6500 0.3598
21.6667 0.3698
21.6833 0.3798
21.7000 0.3898
21.7167 0.3998
21.7333 0.4098
21.7500 0.4198
21.7667 0.4298
21.7833 0.4398
21.8000 0.4498
21.8167 0.4598
21.8333 0.4698
21.8500 0.4798
21.8667 0.4898
21.8833 0.4998
21.9000 0.5098
21.9167 0.5198
21.9333 0.5298
21.9500 0.5398
21.9667 0.5498
21.9833 0.5598
22.0000 0.5508
22.0167 0.5418
22.0333 0.5328
22.0500 0.5238
22.0667 0.5148
22.0833 0.5058
22.1000 0.4968
22.1167 0.4878
22.1333 0.4788
22.1500 0.4698
22.1667 0.4608
22.1833 0.4518
22.2000 0.4428
22.2167 0.4338
22.2333 0.4248
22.2500 0.4158
22.2667 0.4068
22.2833 0.3978
22.3000 0.3888
22.3167 0.3798
22.3333 0.3708
22.3500 0.3618
22.3667 0.3528
22.3833 0.3438
22.4000 0.3348
22.4167 0.3258
22.4333 0.3168
22.4500 0.3078
22.4667 0.2988
22.4833 0.2898
22.5000 0.2998
22.5167 0.3098
22.5333 0.3198
22.5500 0.3298
22.5667 0.3398
22.5833 0.3498
22.6000 0.3598
22.6167 0.3698
22.6333 0.3798
22.6500 0.3898
22.6667 0.3998
22.6833 0.4098
22.7000 0.4198
22.7167 0.4298
22.7333 0.4398
22.7500 0.4498
22.7667 0.4598
22.7833 0.4698
22.8000 0.4798
22.8167 0.4898
22.8333 0.4998
22.8500 0.5098
22.8667 0.5198
22.8833 0.5298
22.9000 0.5398
22.9167 0.5498
22.9333 0.5598
22.9500 0.5698
22.9667 0.5798
22.9833 0.5898
23.0000 0.5808
23.0167 0.5718
23.0333 0.5628
23.0500 0.5538
23.0667 0.5448
23.0833 0.5358
23.1000 0.5268
23.1167 0.5178
23.1333 0.5088
23.1500 0.4998
23.1667 0.4908
23.1833 0.4818
23.2000 0.4728
23.2167 0.4638
23.2333 0.4548
23.2500 0.4458
23.2667 0.4368
23.2833 0.4278
23.3000 0.4188
23.3167 0.4098
23.3333 0.4008
23.3500 0.3918
23.3667 0.3828
23.3833 0.3738
23.4000 0.3648
23.4167 0.3558
23.4333 0.3468
23.4500 0.3378
23.4667 0.3288
23.4833 0.3198
23.5000 0.3298
23.5167 0.3398
23.5333 0.3498
23.5500 0.3598
23.5667 0.3698
23.5833 0.3798
23.6000 0.3898
23.6167 0.3998
23.6333 0.4098
23.6500 0.4198
23.6667 0.4298
23.6833 0.4398
23.7000 0.4498
23.7167 0.4598
23.7333 0.4698
23.7500 0.4798
23.7667 0.4898
23.7833 0.4998
23.8000 0.5098
23.8167 0.5198
23.8333 0.5298
23.8500 0.5398
23.8667 0.5498
23.8833 0.5598
23.9000 0.5698
23.9167 0.5798
23.9333 0.5898
23.9500 0.5998
23.9667 0.6098
23.9833 0.6198
24.0000 0.6108
24.0167 0.6018
24.0333 0.5928
24.0500 0.5838
24.0667 0.5748
24.0833 0.5658
24.1000 0.5568
24.1167 0.5478
24.1333 0.5388
24.1500 0.5298
24.1667 0.5208
24.1833 0.5118
24.2000 0.5028
24.2167 0.4938
24.2333 0.4848
24.2500 0.4758
24.2667 0.4668
24.2833 0.4578
24.3000 0.4488
24.3167 0.4398
24.3333 0.4308
24.3500 0.4218
24.3667 0.4128
24.3833 0.4038
24.4000 0.3948
24.4167 0.3858
24.4333 0.3768
24.4500 0.3678
24.4667 0.3588
24.4833 0.3498
24.5000 0.3598
24.5167 0.3698
24.5333 0.3798
24.5500 0.3898
24.5667 0.3998
24.5833 0.4098
24.6000 0.4198
24.6167 0.4298
24.6333 0.4398
24.6500 0.4498
24.6667 0.4598
24.6833 0.4698
24.7000 0.4798
24.7167 0.4898
24.7333 0.4998
24.7500 0.5098
24.7667 0.5198
24.7833 0.5298
24.8000 0.5398
24.8167 0.5498
24.8333 0.5598
24.8500 0.5698
24.8667 0.5798
24.8833 0.5898
24.9000 0.5998
24.9167 0.6098
24.9333 0.6198
24.9500 0.6298
24.9667 0.6398
24.9833 0.6498
25.0000 0.6408
25.0167 0.6318
25.0333 0.6228
25.0500 0.6138
25.0667 0.6048
25.0833 0.5958
25.1000 0.5868
25.1167 0.5778
25.1333 0.5688
25.1500 0.5598
25.1667 0.5508
25.1833 0.5418
25.2000 0.5328
25.2167 0.5238
25.2333 0.5148
25.2500 0.5058
25.2667 0.4968
25.2833 0.4878
25.3000 0.4788
25.3167 0.4698
25.3333 0.4608
25.3500 0.4518
25.3667 0.4428
25.3833 0.4338
25.4000 0.4248
25.4167 0.4158
25.4333 0.4068
25.4500 0.3978
25.4667 0.3888
25.4833 0.3798
25.5000 0.3898
25.5167 0.3998
25.5333 0.4098
25.5500 0.4198
25.5667 0.4298
25.5833 0.4398
25.6000 0.4498
25.6167 0.4598
25.6333 0.4698
25.6500 0.4798
25.6667 0.4898
25.6833 0.4998
25.7000 0.5098
25.7167 0.5198
25.7333 0.5298
25.7500 0.5398
25.7667 0.5498
25.7833 0.5598
25.8000 0.5698
25.8167 0.5798
25.8333 0.5898
25.8500 0.5998
25.8667 0.6098
25.8833 0.6198
25.9000 0.6298
25.9167 0.6398
25.9333 0.6498
25.9500 0.6598
25.9667 0.6698
25.9833 0.6798
26.0000 0.6708
26.0167 0.6618
26.0333 0.6528
26.0500 0.6438
26.0667 0.6348
26.0833 0.6258
26.1000 0.6168
26.1167 0.6078
26.1333 0.5988
26.1500 0.5898
26.1667 0.5808
26.1833 0.5718
26.2000 0.5628
26.2167 0.5538
26.2333 0.5448
26.2500 0.5358
26.2667 0.5268
26.2833 0.5178
26.3000 0.5088
26.3167 0.4998
26.3333 0.4908
26.3500 0.4818
26.3667 0.4728
26.3833 0.4638
26.4000 0.4548
26.4167 0.4458
26.4333 0.4368
26.4500 0.4278
26.4667 0.4188
26.4833 0.4098
26.5000 0.4198
26.5167 0.4298
26.5333 0.4398
26.5500 0.4498
26.5667 0.4598
26.5833 0.4698
26.6000 0.4798
26.6167 0.4898
26.6333 0.4998
26.6500 0.5098
26.6667 0.5198
26.6833 0.5298
26.7000 0.5398
26.7167 0.5498
26.7333 0.5598
26.7500 0.5698
26.7667 0.5798
26.7833 0.5898
26.8000 0.5998
26.8167 0.6098
26.8333 0.6198
26.8500 0.6298
26.8667 0.6398
26.8833 0.6498
26.9000 0.6598
26.9167 0.6698
26.9333 0.6798
26.9500 0.6898
26.9667 0.6998
26.9833 0.7098
27.0000 0.7008
27.0167 0.6918
27.0333 0.6828
27.0500 0.6738
27.0667 0.6648
27.0833 0.6558
27.1000 0.6468
27.1167 0.6378
27.1333 0.6288
27.1500 0.6198
27.1667 0.6108
27.1833 0.6018
27.2000 0.5928
27.2167 0.5838
27.2333 0.5748
27.2500 0.5658
27.2667 0.5568
27.2833 0.5478
27.3000 0.5388
27.3167 0.5298
27.3333 0.5208
27.3500 0.5118
27.3667 0.5028
27.3833 0.4938
27.4000 0.4848
27.4167 0.4758
27.4333 0.4668
27.4500 0.4578
27.4667 0.4488
27.4833 0.4398
27.5000 0.4498
27.5167 0.4598
27.5333 0.4698
27.5500 0.4798
27.5667 0.4898
27.5833 0.4998
27.6000 0.5098
27.6167 0.5198
27.6333 0.5298
27.6500 0.5398
27.6667 0.5498
27.6833 0.5598
27.7000 0.5698
27.7167 0.5798
27.7333 0.5898
27.7500 0.5998
27.7667 0.6098
27.7833 0.6198
27.8000 0.6298
27.8167 0.6398
27.8333 0.6498
27.8500 0.6598
27.8667 0.6698
27.8833 0.6798
27.9000 0.6898
27.9167 0.6998
27.9333 0.7098
27.9500 0.7198
27.9667 0.7298
27.9833 0.7398
28.0000 0.7308
28.0167 0.7218
28.0333 0.7128
28.0500 0.7038
28.0667 0.6948
28.0833 0.6858
28.1000 0.6768
28.1167 0.6678
28.1333 0.6588
28.1500 0.6498
28.1667 0.6408
28.1833 0.6318
28.2000 0.6228
28.2167 0.6138
28.2333 0.6048
28.2500 0.5958
28.2667 0.5868
28.2833 0.5778
28.3000 0.5688
28.3167 0.5598
28.3333 0.5508
28.3500 0.5418
28.3667 0.5328
28.3833 0.5238
28.4000 0.5148
28.4167 0.5058
28.4333 0.4968
28.4500 0.4878
28.4667 0.4788
28.4833 0.4698
28.5000 0.4798
28.5167 0.4898
28.5333 0.4998
28.5500 0.5098
28.5667 0.5198
28.5833 0.5298
28.6000 0.5398
28.6167 0.5498
28.6333 0.5598
28.6500 0.5698
28.6667 0.5798
28.6833 0.5898
28.7000 0.5998
28.7167 0.6098
28.7333 0.6198
28.7500 0.6298
28.7667 0.6398
28.7833 0.6498
28.8000 0.6598
28.8167 0.6698
28.8333 0.6798
28.8500 0.6898
28.8667 0.6998
28.8833 0.7098
28.9000 0.7198
28.9167 0.7298
28.9333 0.7398
28.9500 0.7498
28.9667 0.7598
28.9833 0.7698
29.0000 0.7608
29.0167 0.7518
29.0333 0.7428
29.0500 0.7338
29.0667 0.7248
29.0833 0.7158
29.1000 0.7068
29.1167 0.6978
29.1333 0.6888
29.1500 0.6798
29.1667 0.6708
29.1833 0.6618
29.2000 0.6528
29.2167 0.6438
29.2333 0.6348
29.2500 0.6258
29.2667 0.6168
29.2833 0.6078
29.3000 0.5988
29.3167 0.5898
29.3333 0.5808
29.3500 0.5718
29.3667 0.5628
29.3833 0.5538
29.4000 0.5448
29.4167 0.5358
29.4333 0.5268
29.4500 0.5178
29.4667 0.5088
29.4833 0.4998
29.5000 0.5098
29.5167 0.5198
29.5333 0.5298
29.5500 0.5398
29.5667 0.5498
29.5833 0.5598
29.6000 0.5698
29.6167 0.5798
29.6333 0.5898
29.6500 0.5998
29.6667 0.6098
29.6833 0.6198
29.7000 0.6298
29.7167 0.6398
29.7333 0.6498
29.7500 0.6598
29.7667 0.6698
29.7833 0.6798
29.8000 0.6898
29.8167 0.6998
29.8333 0.7098
29.8500 0.7198
29.8667 0.7298
29.8833 0.7398
29.9000 0.7498
29.9167 0.7598
29.9333 0.7698
29.9500 0.7798
29.9667 0.7898
29.9833 0.7998
30.0000 0.7908
30.0167 0.7818
30.0333 0.7728
30.0500 0.7638
30.0667 0.7548
30.0833 0.7458
30.1000 0.7368
30.1167 0.7278
30.1333 0.7188
30.1500 0.7098
30.1667 0.7008
30.1833 0.6918
30.2000 0.6828
30.2167 0.6738
30.2333 0.6648
30.2500 0.6558
30.2667 0.6468
30.2833 0.6378
30.3000 0.6288
30.3167 0.6198
30.3333 0.6108
30.3500 0.6018
30.3667 0.5928
30.3833 0.5838
30.4000 0.5748
30.4167 0.5658
30.4333 0.5568
30.4500 0.5478
30.4667 0.5388
30.4833 0.5298
30.5000 0.5398
30.5167 0.5498
30.5333 0.5598
30.5500 0.5698
30.5667 0.5798
30.5833 0.5898
30.6000 0.5998
30.6167 0.6098
30.6333 0.6198
30.6500 0.6298
30.6667 0.6398
30.6833 0.6498
30.7000 0.6598
30.7167 0.6698
30.7333 0.6798
30.7500 0.6898
30.7667 0.6998
30.7833 0.7098
30.8000 0.7198
30.8167 0.7298
30.8333 0.7398
30.8500 0.7498
30.8667 0.7598
30.8833 0.7698
30.9000 0.7798
30.9167 0.7898
30.9333 0.7998
30.9500 0.8098
30.9667 0.8198
30.9833 0.8298
31.0000 0.8208
31.0167 0.8118
31.0333 0.8028
31.0500 0.7938
31.0667 0.7848
31.0833 0.7758
31.1000 0.7668
31.1167 0.7578
31.1333 0.7488
31.1500 0.7398
31.1667 0.7308
31.1833 0.7218
31.2000 0.7128
31.2167 0.7038
31.2333 0.6948
31.2500 0.6858
31.2667 0.6768
31.2833 0.6678
31.3000 0.6588
31.3167 0.6498
31.3333 0.6408
31.3500 0.6318
31.3667 0.6228
31.3833 0.6138
31.4000 0.6048
31.4167 0.5958
31.4333 0.5868
31.4500 0.5778
31.4667 0.5688
31.4833 0.5598
31.5000 0.5698
31.5167 0.5798
31.5333 0.5898
31.5500 0.5998
31.5667 0.6098
31.5833 0.6198
31.6000 0.6298
31.6167 0.6398
31.6333 0.6498
31.6500 0.6598
31.6667 0.6698
31.6833 0.6798
31.7000 0.6898
31.7167 0.6998
31.7333 0.7098
31.7500 0.7198
31.7667 0.7298
31.7833 0.7398
31.8000 0.7498
31.8167 0.7598
31.8333 0.7698
31.8500 0.7798
31.8667 0.7898
31.8833 0.7998
31.9000 0.8098
31.9167 0.8198
31.9333 0.8298
31.9500 0.8398
31.9667 0.8498
31.9833 0.8598
32.0000 0.8508
32.0167 0.8418
32.0333 0.8328
32.0500 0.8238
32.0667 0.8148
32.0833 0.8058
32.1000 0.7968
32.1167 0.7878
32.1333 0.7788
32.1500 0.7698
32.1667 0.7608
32.1833 0.7518
32.2000 0.7428
32.2167 0.7338
32.2333 0.7248
32.2500 0.7158
32.2667 0.7068
32.2833 0.6978
32.3000 0.6888
32.3167 0.6798
32.3333 0.6708
32.3500 0.6618
32.3667 0.6528
32.3833 0.6438
32.4000 0.6348
32.4167 0.6258
32.4333 0.6168
32.4500 0.6078
32.4667 0.5988
32.4833 0.5898
32.5000 0.5998
32.5167 0.6098
32.5333 0.6198
32.5500 0.6298
32.5667 0.6398
32.5833 0.6498
32.6000 0.6598
32.6167 0.6698
32.6333 0.6798
32.6500 0.6898
32.6667 0.6998
32.6833 0.7098
32.7000 0.7198
32.7167 0.7298
32.7333 0.7398
32.7500 0.7498
32.7667 0.7598
32.7833 0.7698
32.8000 0.7798
32.8167 0.7898
32.8333 0.7998
32.8500 0.8098
32.8667 0.8198
32.8833 0.8298
32.9000 0.8398
32.9167 0.8498
32.9333 0.8598
32.9500 0.8698
32.9667 0.8798
32.9833 0.8898
33.0000 0.8808
33.0167 0.8718
33.0333 0.8628
33.0500 0.8538
33.0667 0.8448
33.0833 0.8358
33.1000 0.8268
33.1167 0.8178
33.1333 0.8088
33.1500 0.7998
33.1667 0.7908
33.1833 0.7818
33.2000 0.7728
33.2167 0.7638
33.2333 0.7548
33.2500 0.7458
33.2667 0.7368
33.2833 0.7278
33.3000 0.7188
33.3167 0.7098
33.3333 0.7008
33.3500 0.6918
33.3667 0.6828
33.3833 0.6738
33.4000 0.6648
33.4167 0.6558
33.4333 0.6468
33.4500 0.6378
33.4667 0.6288
33.4833 0.6198
33.5000 0.6298
33.5167 0.6398
33.5333 0.6498
33.5500 0.6598
33.5667 0.6698
33.5833 0.6798
33.6000 0.6898
33.6167 0.6998
33.6333 0.7098
33.6500 0.7198
33.6667 0.7298
33.6833 0.7398
33.7000 0.7498
33.7167 0.7598
33.7333 0.7698
33.7500 0.7798
33.7667 0.7898
33.7833 0.7998
33.8000 0.8098
33.8167 0.8198
33.8333 0.8298
33.8500 0.8398
33.8667 0.8498
33.8833 0.8598
33.9000 0.8698
33.9167 0.8798
33.9333 0.8898
33.9500 0.8998
33.9667 0.9098
33.9833 0.9198
34.0000 0.9108
34.0167 0.9018
34.0333 0.8928
34.0500 0.8838
34.0667 0.8748
34.0833 0.8658
34.1000 0.8568
34.1167 0.8478
34.1333 0.8388
34.1500 0.8298
34.1667 0.8208
34.1833 0.8118
34.2000 0.8028
34.2167 0.7938
34.2333 0.7848
34.2500 0.7758
34.2667 0.7668
34.2833 0.7578
34.3000 0.7488
34.3167 0.7398
34.3333 0.7308
34.3500 0.7218
34.3667 0.7128
34.3833 0.7038
34.4000 0.6948
34.4167 0.6858
34.4333 0.6768
34.4500 0.6678
34.4667 0.6588
34.4833 0.6498
34.5000 0.6598
34.5167 0.6698
34.5333 0.6798
34.5500 0.6898
34.5667 0.6998
34.5833 0.7098
34.6000 0.7198
34.6167 0.7298
34.6333 0.7398
34.6500 0.7498
34.6667 0.7598
34.6833 0.7698
34.7000 0.7798
34.7167 0.7898
34.7333 0.7998
34.7500 0.8098
34.7667 0.8198
34.7833 0.8298
34.8000 0.8398
34.8167 0.8498
34.8333 0.8598
34.8500 0.8698
34.8667 0.8798
34.8833 0.8898
34.9000 0.8998
34.9167 0.9098
34.9333 0.9198
34.9500 0.9298
34.9667 0.9398
34.9833 0.9498
35.0000 0.9408
35.0167 0.9318
35.0333 0.9228
35.0500 0.9138
35.0667 0.9048
35.0833 0.8958
35.1000 0.8868
35.1167 0.8778
35.1333 0.8688
35.1500 0.8598
35.1667 0.8508
35.1833 0.8418
35.2000 0.8328
35.2167 0.8238
35.2333 0.8148
35.2500 0.8058
35.2667 0.7968
35.2833 0.7878
35.3000 0.7788
35.3167 0.7698
35.3333 0.7608
35.3500 0.7518
35.3667 0.7428
35.3833 0.7338
35.4000 0.7248
35.4167 0.7158
35.4333 0.7068
35.4500 0.6978
35.4667 0.6888
35.4833 0.6798
35.5000 0.6898
35.5167 0.6998
35.5333 0.7098
35.5500 0.7198
35.5667 0.7298
35.5833 0.7398
35.6000 0.7498
35.6167 0.7598
35.6333 0.7698
35.6500 0.7798
35.6667 0.7898
35.6833 0.7998
35.7000 0.8098
35.7167 0.8198
35.7333 0.8298
35.7500 0.8398
35.7667 0.8498
35.7833 0.8598
35.8000 0.8698
35.8167 0.8798
35.8333 0.8898
35.8500 0.8998
35.8667 0.9098
35.8833 0.9198
35.9000 0.9298
35.9167 0.9398
35.9333 0.9498
35.9500 0.9598
35.9667 0.9698
35.9833 0.9798
36.0000 0.9708
36.0167 0.9618
36.0333 0.9528
36.0500 0.9438
36.0667 0.9348
36.0833 0.9258
36.1000 0.9168
36.1167 0.9078
36.1333 0.8988
36.1500 0.8898
36.1667 0.8808
36.1833 0.8718
36.2000 0.8628
36.2167 0.8538
36.2333 0.8448
36.2500 0.8358
36.2667 0.8268
36.2833 0.8178
36.3000 0.8088
36.3167 0.7998
36.3333 0.7908
36.3500 0.7818
36.3667 0.7728
36.3833 0.7638
36.4000 0.7548
36.4167 0.7458
36.4333 0.7368
36.4500 0.7278
36.4667 0.7188
36.4833 0.7098
36.5000 0.7198
36.5167 0.7298
36.5333 0.7398
36.5500 0.7498
36.5667 0.7598
36.5833 0.7698
36.6000 0.7798
36.6167 0.7898
36.6333 0.7998
36.6500 0.8098
36.6667 0.8198
36.6833 0.8298
36.7000 0.8398
36.7167 0.8498
36.7333 0.8598
36.7500 0.8698
36.7667 0.8798
36.7833 0.8898
36.8000 0.8998
36.8167 0.9098
36.8333 0.9198
36.8500 0.9298
36.8667 0.9398
36.8833 0.9498
36.9000 0.9598
36.9167 0.9698
36.9333 0.9798
36.9500 0.9898
36.9667 0.9998
36.9833 1.0098
37.0000 1.0008
37.0167 0.9918
37.0333 0.9828
37.0500 0.9738
37.0667 0.9648
37.0833 0.9558
37.1000 0.9468
37.1167 0.9378
37.1333 0.9288
37.1500 0.9198
37.1667 0.9108
37.1833 0.9018
37.2000 0.8928
37.2167 0.8838
37.2333 0.8748
37.2500 0.8658
37.2667 0.8568
37.2833 0.8478
37.3000 0.8388
37.3167 0.8298
37.3333 0.8208
37.3500 0.8118
37.3667 0.8028
37.3833 0.7938
37.4000 0.7848
37.4167 0.7758
37.4333 0.7668
37.4500 0.7578
37.4667 0.7488
37.4833 0.7398
37.5000 0.7498
37.5167 0.7598
37.5333 0.7698
37.5500 0.7798
37.5667 0.7898
37.5833 0.7998
37.6000 0.8098
37.6167 0.8198
37.6333 0.8298
37.6500 0.8398
37.6667 0.8498
37.6833 0.8598
37.7000 0.8698
37.7167 0.8798
37.7333 0.8898
37.7500 0.8998
37.7667 0.9098
37.7833 0.9198
37.8000 0.9298
37.8167 0.9398
37.8333 0.9498
37.8500 0.9598
37.8667 0.9698
37.8833 0.9798
37.9000 0.9898
37.9167 0.9998
37.9333 1.0098
37.9500 1.0198
37.9667 1.0298
37.9833 1.0398
38.0000 1.0308
38.0167 1.0218
38.0333 1.0128
38.0500 1.0038
38.0667 0.9948
38.0833 0.9858
38.1000 0.9768
38.1167 0.9678
38.1333 0.9588
38.1500 0.9498
38.1667 0.9408
38.1833 0.9318
38.2000 0.9228
38.2167 0.9138
38.2333 0.9048
38.2500 0.8958
38.2667 0.8868
38.2833 0.8778
38.3000 0.8688
38.3167 0.8598
38.3333 0.8508
38.3500 0.8418
38.3667 0.8328
38.3833 0.8238
38.4000 0.8148
38.4167 0.8058
38.4333 0.7968
38.4500 0.7878
38.4667 0.7788
38.4833 0.7698
38.5000 0.7798
38.5167 0.7898
38.5333 0.7998
38.5500 0.8098
38.5667 0.8198
38.5833 0.8298
38.6000 0.8398
38.6167 0.8498
38.6333 0.8598
38.6500 0.8698
38.6667 0.8798
38.6833 0.8898
38.7000 0.8998
38.7167 0.9098
38.7333 0.9198
38.7500 0.9298
38.7667 0.9398
38.7833 0.9498
38.8000 0.9598
38.8167 0.9698
38.8333 0.9798
38.8500 0.9898
38.8667 0.9998
38.8833 1.0098
38.9000 1.0198
38.9167 1.0298
38.9333 1.0398
38.9500 1.0498
38.9667 1.0598
38.9833 1.0698
39.0000 1.0608
39.0167 1.0518
39.0333 1.0428
39.0500 1.0338
39.0667 1.0248
39.0833 1.0158
39.1000 1.0068
39.1167 0.9978
39.1333 0.9888
39.1500 0.9798
39.1667 0.9708
39.1833 0.9618
39.2000 0.9528
39.2167 0.9438
39.2333 0.9348
39.2500 0.9258
39.2667 0.9168
39.2833 0.9078
39.3000 0.8988
39.3167 0.8898
39.3333 0.8808
39.3500 0.8718
39.3667 0.8628
39.3833 0.8538
39.4000 0.8448
39.4167 0.8358
39.4333 0.8268
39.4500 0.8178
39.4667 0.8088
39.4833 0.7998
39.5000 0.8098
39.5167 0.8198
39.5333 0.8298
39.5500 0.8398
39.5667 0.8498
39.5833 0.8598
39.6000 0.8698
39.6167 0.8798
39.6333 0.8898
39.6500 0.8998
39.6667 0.9098
39.6833 0.9198
39.7000 0.9298
39.7167 0.9398
39.7333 0.9498
39.7500 0.9598
39.7667 0.9698
39.7833 0.9798
39.8000 0.9898
39.8167 0.9998
39.8333 1.0098
39.8500 1.0198
39.8667 1.0298
39.8833 1.0398
39.9000 1.0498
39.9167 1.0598
39.9333 1.0698
39.9500 1.0798
39.9667 1.0898
39.9833 1.0998
40.0000 1.0908
40.0167 1.0818
40.0333 1.0728
40.0500 1.0638
40.0667 1.0548
40.0833 1.0458
40.1000 1.0368
40.1167 1.0278
40.1333 1.0188
40.1500 1.0098
40.1667 1.0008
40.1833 0.9918
40.2000 0.9828
40.2167 0.9738
40.2333 0.9648
40.2500 0.9558
40.2667 0.9468
40.2833 0.9378
40.3000 0.9288
40.3167 0.9198
40.3333 0.9108
40.3500 0.9018
40.3667 0.8928
40.3833 0.8838
40.4000 0.8748
40.4167 0.8658
40.4333 0.8568
40.4500 0.8478
40.4667 0.8388
40.4833 0.8298
40.5000 0.8398
40.5167 0.8498
40.5333 0.8598
40.5500 0.8698
40.5667 0.8798
40.5833 0.8898
40.6000 0.8998
40.6167 0.9098
40.6333 0.9198
40.6500 0.9298
40.6667 0.9398
40.6833 0.9498
40.7000 0.9598
40.7167 0.9698
40.7333 0.9798
40.7500 0.9898
40.7667 0.9998
40.7833 1.0098
40.8000 1.0198
40.8167 1.0298
40.8333 1.0398
40.8500 1.0498
40.8667 1.0598
40.8833 1.0698
40.9000 1.0798
40.9167 1.0898
40.9333 1.0998
40.9500 1.1098
40.9667 1.1198
40.9833 1.1298
41.0000 1.1208
41.0167 1.1118
41.0333 1.1028
41.0500 1.0938
41.0667 1.0848
41.0833 1.0758
41.1000 1.0668
41.1167 1.0578
41.1333 1.0488
41.1500 1.0398
41.1667 1.0308
41.1833 1.0218
41.2000 1.0128
41.2167 1.0038
41.2333 0.9948
41.2500 0.9858
41.2667 0.9768
41.2833 0.9678
41.3000 0.9588
41.3167 0.9498
41.3333 0.9408
41.3500 0.9318
41.3667 0.9228
41.3833 0.9138
41.4000 0.9048
41.4167 0.8958
41.4333 0.8868
41.4500 0.8778
41.4667 0.8688
41.4833 0.8598
41.5000 0.8698
41.5167 0.8798
41.5333 0.8898
41.5500 0.8998
41.5667 0.9098
41.5833 0.9198
41.6000 0.9298
41.6167 0.9398
41.6333 0.9498
41.6500 0.9598
41.6667 0.9698
41.6833 0.9798
41.7000 0.9898
41.7167 0.9998
41.7333 1.0098
41.7500 1.0198
41.7667 1.0298
41.7833 1.0398
41.8000 1.0498
41.8167 1.0598
41.8333 1.0698
41.8500 1.0798
41.8667 1.0898
41.8833 1.0998
41.9000 1.1098
41.9167 1.1198
41.9333 1.1298
41.9500 1.1398
41.9667 1.1498
41.9833 1.1598
42.0000 1.1508
42.0167 1.1418
42.0333 1.1328
42.0500 1.1238
42.0667 1.1148
42.0833 1.1058
42.1000 1.0968
42.1167 1.0878
42.1333 1.0788
42.1500 1.0698
42.1667 1.0608
42.1833 1.0518
42.2000 1.0428
42.2167 1.0338
42.2333 1.0248
42.2500 1.0158
42.2667 1.0068
42.2833 0.9978
42.3000 0.9888
42.3167 0.9798
42.3333 0.9708
42.3500 0.9618
42.3667 0.9528
42.3833 0.9438
42.4000 0.9348
42.4167 0.9258
42.4333 0.9168
42.4500 0.9078
42.4667 0.8988
42.4833 0.8898
42.5000 0.8998
42.5167 0.9098
42.5333 0.9198
42.5500 0.9298
42.5667 0.9398
42.5833 0.9498
42.6000 0.9598
42.6167 0.9698
42.6333 0.9798
42.6500 0.9898
42.6667 0.9998
42.6833 1.0098
42.7000 1.0198
42.7167 1.0298
42.7333 1.0398
42.7500 1.0498
42.7667 1.0598
42.7833 1.0698
42.8000 1.0798
42.8167 1.0898
42.8333 1.0998
42.8500 1.1098
42.8667 1.1198
42.8833 1.1298
42.9000 1.1398
42.9167 1.1498
42.9333 1.1598
42.9500 1.1698
42.9667 1.1798
42.9833 1.1898
43.0000 1.1808
43.0167 1.1718
43.0333 1.1628
43.0500 1.1538
43.0667 1.1448
43.0833 1.1358
43.1000 1.1268
43.1167 1.1178
43.1333 1.1088
43.1500 1.0998
43.1667 1.0908
43.1833 1.0818
43.2000 1.0728
43.2167 1.0638
43.2333 1.0548
43.2500 1.0458
43.2667 1.0368
43.2833 1.0278
43.3000 1.0188
43.3167 1.0098
43.3333 1.0008
43.3500 0.9918
43.3667 0.9828
43.3833 0.9738
43.4000 0.9648
43.4167 0.9558
43.4333 0.9468
43.4500 0.9378
43.4667 0.9288
43.4833 0.9198
43.5000 0.9298
43.5167 0.9398
43.5333 0.9498
43.5500 0.9598
43.5667 0.9698
43.5833 0.9798
43.6000 0.9898
43.6167 0.9998
43.6333 1.0098
43.6500 1.0198
43.6667 1.0298
43.6833 1.0398
43.7000 1.0498
43.7167 1.0598
43.7333 1.0698
43.7500 1.0798
43.7667 1.0898
43.7833 1.0998
43.8000 1.1098
43.8167 1.1198
43.8333 1.1298
43.8500 1.1398
43.8667 1.1498
43.8833 1.1598
43.9000 1.1698
43.9167 1.1798
43.9333 1.1898
43.9500 1.1998
43.9667 1.2098
43.9833 1.2198
44.0000 1.2108
44.0167 1.2018
44.0333 1.1928
44.0500 1.1838
44.0667 1.1748
44.0833 1.1658
44.1000 1.1568
44.1167 1.1478
44.1333 1.1388
44.1500 1.1298
44.1667 1.1208
44.1833 1.1118
44.2000 1.1028
44.2167 1.0938
44.2333 1.0848
44.2500 1.0758
44.2667 1.0668
44.2833 1.0578
44.3000 1.0488
44.3167 1.0398
44.3333 1.0308
44.3500 1.0218
44.3667 1.0128
44.3833 1.0038
44.4000 0.9948
44.4167 0.9858
44.4333 0.9768
44.4500 0.9678
44.4667 0.9588
44.4833 0.9498
44.5000 0.9598
44.5167 0.9698
44.5333 0.9798
44.5500 0.9898
44.5667 0.9998
44.5833 1.0098
44.6000 1.0198
44.6167 1.0298
44.6333 1.0398
44.6500 1.0498
44.6667 1.0598
44.6833 1.0698
44.7000 1.0798
44.7167 1.0898
44.7333 1.0998
44.7500 1.1098
44.7667 1.1198
44.7833 1.1298
44.8000 1.1398
44.8167 1.1498
44.8333 1.1598
44.8500 1.1698
44.8667 1.1798
44.8833 1.1898
44.9000 1.1998
44.9167 1.2098
44.9333 1.2198
44.9500 1.2298
44.9667 1.2398
44.9833 1.2498
45.0000 1.2408
45.0167 1.2318
45.0333 1.2228
45.0500 1.2138
45.0667 1.2048
45.0833 1.1958
45.1000 1.1868
45.1167 1.1778
45.1333 1.1688
45.1500 1.1598
45.1667 1.1508
45.1833 1.1418
45.2000 1.1328
45.2167 1.1238
45.2333 1.1148
45.2500 1.1058
45.2667 1.0968
45.2833 1.0878
45.3000 1.0788
45.3167 1.0698
45.3333 1.0608
45.3500 1.0518
45.3667 1.0428
45.3833 1.0338
45.4000 1.0248
45.4167 1.0158
45.4333 1.0068
45.4500 0.9978
45.4667 0.9888
45.4833 0.9798
45.5000 0.9898
45.5167 0.9998
45.5333 1.0098
45.5500 1.0198
45.5667 1.0298
45.5833 1.0398
45.6000 1.0498
45.6167 1.0598
45.6333 1.0698
45.6500 1.0798
45.6667 1.0898
45.6833 1.0998
45.7000 1.1098
45.7167 1.1198
45.7333 1.1298
45.7500 1.1398
45.7667 1.1498
45.7833 1.1598
45.8000 1.1698
45.8167 1.1798
45.8333 1.1898
45.8500 1.1998
45.8667 1.2098
45.8833 1.2198
45.9000 1.2298
45.9167 1.2398
45.9333 1.2498
45.9500 1.2598
45.9667 1.2698
45.9833 1.2798
46.0000 1.2708
46.0167 1.2618
46.0333 1.2528
46.0500 1.2438
46.0667 1.2348
46.0833 1.2258
46.1000 1.2168
46.1167 1.2078
46.1333 1.1988
46.1500 1.1898
46.1667 1.1808
46.1833 1.1718
46.2000 1.1628
46.2167 1.1538
46.2333 1.1448
46.2500 1.1358
46.2667 1.1268
46.2833 1.1178
46.3000 1.1088
46.3167 1.0998
46.3333 1.0908
46.3500 1.0818
46.3667 1.0728
46.3833 1.0638
46.4000 1.0548
46.4167 1.0458
46.4333 1.0368
46.4500 1.0278
46.4667 1.0188
46.4833 1.0098
46.5000 1.0198
46.5167 1.0298
46.5333 1.0398
46.5500 1.0498
46.5667 1.0598
46.5833 1.0698
46.6000 1.0798
46.6167 1.0898
46.6333 1.0998
46.6500 1.1098
46.6667 1.1198
46.6833 1.1298
46.7000 1.1398
46.7167 1.1498
46.7333 1.1598
46.7500 1.1698
46.7667 1.1798
46.7833 1.1898
46.8000 1.1998
46.8167 1.2098
46.8333 1.2198
46.8500 1.2298
46.8667 1.2398
46.8833 1.2498
46.9000 1.2598
46.9167 1.2698
46.9333 1.2798
46.9500 1.2898
46.9667 1.2998
46.9833 1.3098
47.0000 1.3008
47.0167 1.2918
47.0333 1.2828
47.0500 1.2738
47.0667 1.2648
47.0833 1.2558
47.1000 1.2468
47.1167 1.2378
47.1333 1.2288
47.1500 1.2198
47.1667 1.2108
47.1833 1.2018
47.2000 1.1928
47.2167 1.1838
47.2333 1.1748
47.2500 1.1658
47.2667 1.1568
47.2833 1.1478
47.3000 1.1388
47.3167 1.1298
47.3333 1.1208
47.3500 1.1118
47.3667 1.1028
47.3833 1.0938
47.4000 1.0848
47.4167 1.0758
47.4333 1.0668
47.4500 1.0578
47.4667 1.0488
47.4833 1.0398
47.5000 1.0498
47.5167 1.0598
47.5333 1.0698
47.5500 1.0798
47.5667 1.0898
47.5833 1.0998
47.6000 1.1098
47.6167 1.1198
47.6333 1.1298
47.6500 1.1398
47.6667 1.1498
47.6833 1.1598
47.7000 1.1698
47.7167 1.1798
47.7333 1.1898
47.7500 1.1998
47.7667 1.2098
47.7833 1.2198
47.8000 1.2298
47.8167 1.2398
47.8333 1.2498
47.8500 1.2598
47.8667 1.2698
47.8833 1.2798
47.9000 1.2898
47.9167 1.2998
47.9333 1.3098
47.9500 1.3198
47.9667 1.3298
47.9833 1.3398
48.0000 1.3308
48.0167 1.3218
48.0333 1.3128
48.0500 1.3038
48.0667 1.2948
48.0833 1.2858
48.1000 1.2768
48.1167 1.2678
48.1333 1.2588
48.1500 1.2498
48.1667 1.2408
48.1833 1.2318
48.2000 1.2228
48.2167 1.2138
48.2333 1.2048
48.2500 1.1958
48.2667 1.1868
48.2833 1.1778
48.3000 1.1688
48.3167 1.1598
48.3333 1.1508
48.3500 1.1418
48.3667 1.1328
48.3833 1.1238
48.4000 1.1148
48.4167 1.1058
48.4333 1.0968
48.4500 1.0878
48.4667 1.0788
48.4833 1.0698
48.5000 1.0798
48.5167 1.0898
48.5333 1.0998
48.5500 1.1098
48.5667 1.1198
48.5833 1.1298
48.6000 1.1398
48.6167 1.1498
48.6333 1.1598
48.6500 1.1698
48.6667 1.1798
48.6833 1.1898
48.7000 1.1998
48.7167 1.2098
48.7333 1.2198
48.7500 1.2298
48.7667 1.2398
48.7833 1.2498
48.8000 1.2598
48.8167 1.2698
48.8333 1.2798
48.8500 1.2898
48.8667 1.2998
48.8833 1.3098
48.9000 1.3198
48.9167 1.3298
48.9333 1.3398
48.9500 1.3498
48.9667 1.3598
48.9833 1.3698
49.0000 1.3608
49.0167 1.3518
49.0333 1.3428
49.0500 1.3338
49.0667 1.3248
49.0833 1.3158
49.1000 1.3068
49.1167 1.2978
49.1333 1.2888
49.1500 1.2798
49.1667 1.2708
49.1833 1.2618
49.2000 1.2528
49.2167 1.2438
49.2333 1.2348
49.2500 1.2258
49.2667 1.2168
49.2833 1.2078
49.3000 1.1988
49.3167 1.1898
49.3333 1.1808
49.3500 1.1718
49.3667 1.1628
49.3833 1.1538
49.4000 1.1448
49.4167 1.1358
49.4333 1.1268
49.4500 1.1178
49.4667 1.1088
49.4833 1.0998
49.5000 1.1098
49.5167 1.1198
49.5333 1.1298
49.5500 1.1398
49.5667 1.1498
49.5833 1.1598
49.6000 1.1698
49.6167 1.1798
49.6333 1.1898
49.6500 1.1998
49.6667 1.2098
49.6833 1.2198
49.7000 1.2298
49.7167 1.2398
49.7333 1.2498
49.7500 1.2598
49.7667 1.2698
49.7833 1.2798
49.8000 1.2898
49.8167 1.2998
49.8333 1.3098
49.8500 1.3198
49.8667 1.3298
49.8833 1.3398
49.9000 1.3498
49.9167 1.3598
49.9333 1.3698
49.9500 1.3798
49.9667 1.3898
49.9833 1.3998
50.0000 1.3908
50.0167 1.3818
50.0333 1.3728
50.0500 1.3638
50.0667 1.3548
50.0833 1.3458
50.1000 1.3368
50.1167 1.3278
50.1333 1.3188
50.1500 1.3098
50.1667 1.3008
50.1833 1.2918
50.2000 1.2828
50.2167 1.2738
50.2333 1.2648
50.2500 1.2558
50.2667 1.2468
50.2833 1.2378
50.3000 1.2288
50.3167 1.2198
50.3333 1.2108
50.3500 1.2018
50.3667 1.1928
50.3833 1.1838
50.4000 1.1748
50.4167 1.1658
50.4333 1.1568
50.4500 1.1478
50.4667 1.1388
50.4833 1.1298
50.5000 1.1398
50.5167 1.1498
50.5333 1.1598
50.5500 1.1698
50.5667 1.1798
50.5833 1.1898
50.6000 1.1998
50.6167 1.2098
50.6333 1.2198
50.6500 1.2298
50.6667 1.2398
50.6833 1.2498
50.7000 1.2598
50.7167 1.2698
50.7333 1.2798
50.7500 1.2898
50.7667 1.2998
50.7833 1.3098
50.8000 1.3198
50.8167 1.3298
50.8333 1.3398
50.8500 1.3498
50.8667 1.3598
50.8833 1.3698
50.9000 1.3798
50.9167 1.3898
50.9333 1.3998
50.9500 1.4098
50.9667 1.4198
50.9833 1.4298
51.0000 1.4208
51.0167 1.4118
51.0333 1.4028
51.0500 1.3938
51.0667 1.3848
51.0833 1.3758
51.1000 1.3668
51.1167 1.3578
51.1333 1.3488
51.1500 1.3398
51.1667 1.3308
51.1833 1.3218
51.2000 1.3128
51.2167 1.3038
51.2333 1.2948
51.2500 1.2858
51.2667 1.2768
51.2833 1.2678
51.3000 1.2588
51.3167 1.2498
51.3333 1.2408
51.3500 1.2318
51.3667 1.2228
51.3833 1.2138
51.4000 1.2048
51.4167 1.1958
51.4333 1.1868
51.4500 1.1778
51.4667 1.1688
51.4833 1.1598
51.5000 1.1698
51.5167 1.1798
51.5333 1.1898
51.5500 1.1998
51.5667 1.2098
51.5833 1.2198
51.6000 1.2298
51.6167 1.2398
51.6333 1.2498
51.6500 1.2598
51.6667 1.2698
51.6833 1.2798
51.7000 1.2898
51.7167 1.2998
51.7333 1.3098
51.7500 1.3198
51.7667 1.3298
51.7833 1.3398
51.8000 1.3498
51.8167 1.3598
51.8333 1.3698
51.8500 1.3798
51.8667 1.3898
51.8833 1.3998
51.9000 1.4098
51.9167 1.4198
51.9333 1.4298
51.9500 1.4398
51.9667 1.4498
51.9833 1.4598
52.0000 1.4508
52.0167 1.4418
52.0333 1.4328
52.0500 1.4238
52.0667 1.4148
52.0833 1.4058
52.1000 1.3968
52.1167 1.3878
52.1333 1.3788
52.1500 1.3698
52.1667 1.3608
52.1833 1.3518
52.2000 1.3428
52.2167 1.3338
52.2333 1.3248
52.2500 1.3158
52.2667 1.3068
52.2833 1.2978
52.3000 1.2888
52.3167 1.2798
52.3333 1.2708
52.3500 1.2618
52.3667 1.2528
52.3833 1.2438
52.4000 1.2348
52.4167 1.2258
52.4333 1.2168
52.4500 1.2078
52.4667 1.1988
52.4833 1.1898
52.5000 1.1998
52.5167 1.2098
52.5333 1.2198
52.5500 1.2298
52.5667 1.2398
52.5833 1.2498
52.6000 1.2598
52.6167 1.2698
52.6333 1.2798
52.6500 1.2898
52.6667 1.2998
52.6833 1.3098
52.7000 1.3198
52.7167 1.3298
52.7333 1.3398
52.7500 1.3498
52.7667 1.3598
52.7833 1.3698
52.8000 1.3798
52.8167 1.3898
52.8333 1.3998
52.8500 1.4098
52.8667 1.4198
52.8833 1.4298
52.9000 1.4398
52.9167 1.4498
52.9333 1.4598
52.9500 1.4698
52.9667 1.4798
52.9833 1.4898
53.0000 1.4808
53.0167 1.4718
53.0333 1.4628
53.0500 1.4538
53.0667 1.4448
53.0833 1.4358
53.1000 1.4268
53.1167 1.4178
53.1333 1.4088
53.1500 1.3998
53.1667 1.3908
53.1833 1.3818
53.2000 1.3728
53.2167 1.3638
53.2333 1.3548
53.2500 1.3458
53.2667 1.3368
53.2833 1.3278
53.3000 1.3188
53.3167 1.3098
53.3333 1.3008
53.3500 1.2918
53.3667 1.2828
53.3833 1.2738
53.4000 1.2648
53.4167 1.2558
53.4333 1.2468
53.4500 1.2378
53.4667 1.2288
53.4833 1.2198
53.5000 1.2298
53.5167 1.2398
53.5333 1.2498
53.5500 1.2598
53.5667 1.2698
53.5833 1.2798
53.6000 1.2898
53.6167 1.2998
53.6333 1.3098
53.6500 1.3198
53.6667 1.3298
53.6833 1.3398
53.7000 1.3498
53.7167 1.3598
53.7333 1.3698
53.7500 1.3798
53.7667 1.3898
53.7833 1.3998
53.8000 1.4098
53.8167 1.4198
53.8333 1.4298
53.8500 1.4398
53.8667 1.4498
53.8833 1.4598
53.9000 1.4698
53.9167 1.4798
53.9333 1.4898
53.9500 1.4998
53.9667 1.5098
53.9833 1.5198
54.0000 1.5108
54.0167 1.5018
54.0333 1.4928
54.0500 1.4838
54.0667 1.4748
54.0833 1.4658
54.1000 1.4568
54.1167 1.4478
54.1333 1.4388
54.1500 1.4298
54.1667 1.4208
54.1833 1.4118
54.2000 1.4028
54.2167 1.3938
54.2333 1.3848
54.2500 1.3758
54.2667 1.3668
54.2833 1.3578
54.3000 1.3488
54.3167 1.3398
54.3333 1.3308
54.3500 1.3218
54.3667 1.3128
54.3833 1.3038
54.4000 1.2948
54.4167 1.2858
54.4333 1.2768
54.4500 1.2678
54.4667 1.2588
54.4833 1.2498
54.5000 1.2598
54.5167 1.2698
54.5333 1.2798
54.5500 1.2898
54.5667 1.2998
54.5833 1.3098
54.6000 1.3198
54.6167 1.3298
54.6333 1.3398
54.6500 1.3498
54.6667 1.3598
54.6833 1.3698
54.7000 1.3798
54.7167 1.3898
54.7333 1.3998
54.7500 1.4098
54.7667 1.4198
54.7833 1.4298
54.8000 1.4398
54.8167 1.4498
54.8333 1.4598
54.8500 1.4698
54.8667 1.4798
54.8833 1.4898
54.9000 1.4998
54.9167 1.5098
54.9333 1.5198
54.9500 1.5298
54.9667 1.5398
54.9833 1.5498
55.0000 1.5408
55.0167 1.5318
55.0333 1.5228
55.0500 1.5138
55.0667 1.5048
55.0833 1.4958
55.1000 1.4868
55.1167 1.4778
55.1333 1.4688
55.1500 1.4598
55.1667 1.4508
55.1833 1.4418
55.2000 1.4328
55.2167 1.4238
55.2333 1.4148
55.2500 1.4058
55.2667 1.3968
55.2833 1.3878
55.3000 1.3788
55.3167 1.3698
55.3333 1.3608
55.3500 1.3518
55.3667 1.3428
55.3833 1.3338
55.4000 1.3248
55.4167 1.3158
55.4333 1.3068
55.4500 1.2978
55.4667 1.2888
55.4833 1.2798
55.5000 1.2898
55.5167 1.2998
55.5333 1.3098
55.5500 1.3198
55.5667 1.3298
55.5833 1.3398
55.6000 1.3498
55.6167 1.3598
55.6333 1.3698
55.6500 1.3798
55.6667 1.3898
55.6833 1.3998
55.7000 1.4098
55.7167 1.4198
55.7333 1.4298
55.7500 1.4398
55.7667 1.4498
55.7833 1.4598
55.8000 1.4698
55.8167 1.4798
55.8333 1.4898
55.8500 1.4998
55.8667 1.5098
55.8833 1.5198
55.9000 1.5298
55.9167 1.5398
55.9333 1.5498
55.9500 1.5598
55.9667 1.5698
55.9833 1.5798
56.0000 1.5708
56.0167 1.5618
56.0333 1.5528
56.0500 1.5438
56.0667 1.5348
56.0833 1.5258
56.1000 1.5168
56.1167 1.5078
56.1333 1.4988
56.1500 1.4898
56.1667 1.4808
56.1833 1.4718
56.2000 1.4628
56.2167 1.4538
56.2333 1.4448
56.2500 1.4358
56.2667 1.4268
56.2833 1.4178
56.3000 1.4088
56.3167 1.3998
56.3333 1.3908
56.3500 1.3818
56.3667 1.3728
56.3833 1.3638
56.4000 1.3548
56.4167 1.3458
56.4333 1.3368
56.4500 1.3278
56.4667 1.3188
56.4833 1.3098
56.5000 1.3198
56.5167 1.3298
56.5333 1.3398
56.5500 1.3498
56.5667 1.3598
56.5833 1.3698
56.6000 1.3798
56.6167 1.3898
56.6333 1.3998
56.6500 1.4098
56.6667 1.4198
56.6833 1.4298
56.7000 1.4398
56.7167 1.4498
56.7333 1.4598
56.7500 1.4698
56.7667 1.4798
56.7833 1.4898
56.8000 1.4998
56.8167 1.5098
56.8333 1.5198
56.8500 1.5298
56.8667 1.5398
56.8833 1.5498
56.9000 1.5598
56.9167 1.5698
56.9333 1.5798
56.9500 1.5898
56.9667 1.5998
56.9833 1.6098
57.0000 1.6008
57.0167 1.5918
57.0333 1.5828
57.0500 1.5738
57.0667 1.5648
57.0833 1.5558
57.1000 1.5468
57.1167 1.5378
57.1333 1.5288
57.1500 1.5198
57.1667 1.5108
57.1833 1.5018
57.2000 1.4928
57.2167 1.4838
57.2333 1.4748
57.2500 1.4658
57.2667 1.4568
57.2833 1.4478
57.3000 1.4388
57.3167 1.4298
57.3333 1.4208
57.3500 1.4118
57.3667 1.4028
57.3833 1.3938
57.4000 1.3848
57.4167 1.3758
57.4333 1.3668
57.4500 1.3578
57.4667 1.3488
57.4833 1.3398
57.5000 1.3498
57.5167 1.3598
57.5333 1.3698
57.5500 1.3798
57.5667 1.3898
57.5833 1.3998
57.6000 1.4098
57.6167 1.4198
57.6333 1.4298
57.6500 1.4398
57.6667 1.4498
57.6833 1.4598
57.7000 1.4698
57.7167 1.4798
57.7333 1.4898
57.7500 1.4998
57.7667 1.5098
57.7833 1.5198
57.8000 1.5298
57.8167 1.5398
57.8333 1.5498
57.8500 1.5598
57.8667 1.5698
57.8833 1.5798
57.9000 1.5898
57.9167 1.5998
57.9333 1.6098
57.9500 1.6198
57.9667 1.6298
57.9833 1.6398
58.0000 1.6308
58.0167 1.6218
58.0333 1.6128
58.0500 1.6038
58.0667 1.5948
58.0833 1.5858
58.1000 1.5768
58.1167 1.5678
58.1333 1.5588
58.1500 1.5498
58.1667 1.5408
58.1833 1.5318
58.2000 1.5228
58.2167 1.5138
58.2333 1.5048
58.2500 1.4958
58.2667 1.4868
58.2833 1.4778
58.3000 1.4688
58.3167 1.4598
58.3333 1.4508
58.3500 1.4418
58.3667 1.4328
58.3833 1.4238
58.4000 1.4148
58.4167 1.4058
58.4333 1.3968
58.4500 1.3878
58.4667 1.3788
58.4833 1.3698
58.5000 1.3798
58.5167 1.3898
58.5333 1.3998
58.5500 1.4098
58.5667 1.4198
58.5833 1.4298
58.6000 1.4398
58.6167 1.4498
58.6333 1.4598
58.6500 1.4698
58.6667 1.4798
58.6833 1.4898
58.7000 1.4998
58.7167 1.5098
58.7333 1.5198
58.7500 1.5298
58.7667 1.5398
58.7833 1.5498
58.8000 1.5598
58.8167 1.5698
58.8333 1.5798
58.8500 1.5898
58.8667 1.5998
58.8833 1.6098
58.9000 1.6198
58.9167 1.6298
58.9333 1.6398
58.9500 1.6498
58.9667 1.6598
58.9833 1.6698
59.0000 1.6608
59.0167 1.6518
59.0333 1.6428
59.0500 1.6338
59.0667 1.6248
59.0833 1.6158
59.1000 1.6068
59.1167 1.5978
59.1333 1.5888
59.1500 1.5798
59.1667 1.5708
59.1833 1.5618
59.2000 1.5528
59.2167 1.5438
59.2333 1.5348
59.2500 1.5258
59.2667 1.5168
59.2833 1.5078
59.3000 1.4988
59.3167 1.4898
59.3333 1.4808
59.3500 1.4718
59.3667 1.4628
59.3833 1.4538
59.4000 1.4448
59.4167 1.4358
59.4333 1.4268
59.4500 1.4178
59.4667 1.4088
59.4833 1.3998
59.5000 1.4098
59.5167 1.4198
59.5333 1.4298
59.5500 1.4398
59.5667 1.4498
59.5833 1.4598
59.6000 1.4698
59.6167 1.4798
59.6333 1.4898
59.6500 1.4998
59.6667 1.5098
59.6833 1.5198
59.7000 1.5298
59.7167 1.5398
59.7333 1.5498
59.7500 1.5598
59.7667 1.5698
59.7833 1.5798
59.8000 1.5898
59.8167 1.5998
59.8333 1.6098
59.8500 1.6198
59.8667 1.6298
59.8833 1.6398
59.9000 1.6498
59.9167 1.6598
59.9333 1.6698
59.9500 1.6798
59.9667 1.6898
59.9833 1.6998
60.0000 1.3078
60.0167 1.3178
60.0333 1.3278
60.0500 1.3378
60.0667 1.3478
60.0833 1.3578
60.1000 1.3678
60.1167 1.3778
60.1333 1.3878
60.1500 1.3978
60.1667 1.4078
60.1833 1.4178
60.2000 1.4278
60.2167 1.4378
60.2333 1.4478
60.2500 1.4578
60.2667 1.4678
60.2833 1.4778
60.3000 1.4878
60.3167 1.4978
60.3333 1.5078
60.3500 1.5178
60.3667 1.5278
60.3833 1.5378
60.4000 1.5478
60.4167 1.5578
60.4333 1.5678
60.4500 1.5778
60.4667 1.5878
60.4833 1.5978
60.5000 1.6078
60.5167 1.6178
60.5333 1.6278
60.5500 1.6378
60.5667 1.6478
60.5833 1.6578
60.6000 1.6678
60.6167 1.6778
60.6333 1.6878
60.6500 1.6978
60.6667 1.7078
60.6833 1.7178
60.7000 1.7278
60.7167 1.7378
60.7333 1.7478
60.7500 1.7578
60.7667 1.7678
60.7833 1.7778
60.8000 1.7878
60.8167 1.7978
60.8333 1.8078
60.8500 1.8178
60.8667 1.8278
60.8833 1.8378
60.9000 1.8478
60.9167 1.8578
60.9333 1.8678
60.9500 1.8778
60.9667 1.8878
60.9833 1.8978
61.0000 1.8889
61.0167 1.8800
61.0333 1.8711
61.0500 1.8622
61.0667 1.8533
61.0833 1.8444
61.1000 1.8355
61.1167 1.8266
61.1333 1.8177
61.1500 1.8088
61.1667 1.7999
61.1833 1.7910
61.2000 1.7821
61.2167 1.7732
61.2333 1.7643
61.2500 1.7554
61.2667 1.7465
61.2833 1.7376
61.3000 1.7287
61.3167 1.7198
61.3333 1.7109
61.3500 1.7020
61.3667 1.6931
61.3833 1.6842
61.4000 1.6753
61.4167 1.6664
61.4333 1.6575
61.4500 1.6486
61.4667 1.6397
61.4833 1.6308
61.5000 1.6219
61.5167 1.6130
61.5333 1.6041
61.5500 1.5952
61.5667 1.5863
61.5833 1.5774
61.6000 1.5685
61.6167 1.5596
61.6333 1.5507
61.6500 1.5418
61.6667 1.5329
61.6833 1.5240
61.7000 1.5151
61.7167 1.5062
61.7333 1.4973
61.7500 1.4884
61.7667 1.4795
61.7833 1.4706
61.8000 1.4617
61.8167 1.4528
61.8333 1.4439
61.8500 1.4350
61.8667 1.4261
61.8833 1.4172
61.9000 1.4083
61.9167 1.3994
61.9333 1.3905
61.9500 1.3816
61.9667 1.3727
61.9833 1.3638
62.0000 1.3549
62.0167 1.3460
62.0333 1.3371
62.0500 1.3282
62.0667 1.3193
62.0833 1.3104
62.1000 1.3015
62.1167 1.2926
62.1333 1.2837
62.1500 1.2748
62.1667 1.2659
62.1833 1.2570
62.2000 1.2481
62.2167 1.2392
62.2333 1.2303
62.2500 1.2214
62.2667 1.2125
62.2833 1.2036
62.3000 1.1947
62.3167 1.1858
62.3333 1.1769
62.3500 1.1680
62.3667 1.1591
62.3833 1.1502
62.4000 1.1413
62.4167 1.1324
62.4333 1.1235
62.4500 1.1146
62.4667 1.1057
62.4833 1.0968
62.5000 1.0879
62.5167 1.0790
62.5333 1.0701
62.5500 1.0612
62.5667 1.0523
62.5833 1.0434
62.6000 1.0345
62.6167 1.0256
62.6333 1.0167
62.6500 1.0078
62.6667 0.9989
62.6833 0.9900
62.7000 0.9811
62.7167 0.9722
62.7333 0.9633
62.7500 0.9544
62.7667 0.9455
62.7833 0.9366
62.8000 0.9277
62.8167 0.9188
62.8333 0.9099
62.8500 0.9010
62.8667 0.8921
62.8833 0.8832
62.9000 0.8743
62.9167 0.8654
62.9333 0.8565
62.9500 0.8476
62.9667 0.8387
62.9833 0.8298
63.0000 0.8398
63.0167 0.8498
63.0333 0.8598
63.0500 0.8698
63.0667 0.8798
63.0833 0.8898
63.1000 0.8998
63.1167 0.9098
63.1333 0.9198
63.1500 0.9298
63.1667 0.9398
63.1833 0.9498
63.2000 0.9598
63.2167 0.9698
63.2333 0.9798
63.2500 0.9898
63.2667 0.9998
63.2833 1.0098
63.3000 1.0198
63.3167 1.0298
63.3333 1.0398
63.3500 1.0498
63.3667 1.0598
63.3833 1.0698
63.4000 1.0798
63.4167 1.0898
63.4333 1.0998
63.4500 1.1098
63.4667 1.1198
63.4833 1.1298
63.5000 1.1398
63.5167 1.1498
63.5333 1.1598
63.5500 1.1698
63.5667 1.1798
63.5833 1.1898
63.6000 1.1998
63.6167 1.2098
63.6333 1.2198
63.6500 1.2298
63.6667 1.2398
63.6833 1.2498
63.7000 1.2598
63.7167 1.2698
63.7333 1.2798
63.7500 1.2898
63.7667 1.2998
63.7833 1.3098
63.8000 1.3198
63.8167 1.3298
63.8333 1.3398
63.8500 1.3498
63.8667 1.3598
63.8833 1.3698
63.9000 1.3798
63.9167 1.3898
63.9333 1.3998
63.9500 1.4098
63.9667 1.4198
63.9833 1.4298
64.0000 1.4398
64.0167 1.4498
64.0333 1.4598
64.0500 1.4698
64.0667 1.4798
64.0833 1.4898
64.1000 1.4998
64.1167 1.5098
64.1333 1.5198
64.1500 1.5298
64.1667 1.5398
64.1833 1.5498
64.2000 1.5598
64.2167 1.5698
64.2333 1.5798
64.2500 1.5898
64.2667 1.5998
64.2833 1.6098
64.3000 1.6198
64.3167 1.6298
64.3333 1.6398
64.3500 1.6498
64.3667 1.6598
64.3833 1.6698
64.4000 1.6798
64.4167 1.6898
64.4333 1.6998
64.4500 1.7098
64.4667 1.7198
64.4833 1.7298
64.5000 1.7398
64.5167 1.7498
64.5333 1.7598
64.5500 1.7698
64.5667 1.7798
64.5833 1.7898
64.6000 1.7998
64.6167 1.8098
64.6333 1.8198
64.6500 1.8298
64.6667 1.8398
64.6833 1.8498
64.7000 1.8598
64.7167 1.8698
64.7333 1.8798
64.7500 1.8898
64.7667 1.8998
64.7833 1.9098
64.8000 1.9198
64.8167 1.9298
64.8333 1.9398
64.8500 1.9498
64.8667 1.9598
64.8833 1.9698
64.9000 1.9798
64.9167 1.9898
64.9333 1.9998
64.9500 2.0098
64.9667 2.0198
64.9833 2.0298
65.0000 2.0209
65.0167 2.0120
65.0333 2.0031
65.0500 1.9942
65.0667 1.9853
65.0833 1.9764
65.1000 1.9675
65.1167 1.9586
65.1333 1.9497
65.1500 1.9408
65.1667 1.9319
65.1833 1.9230
65.2000 1.9141
65.2167 1.9052
65.2333 1.8963
65.2500 1.8874
65.2667 1.8785
65.2833 1.8696
65.3000 1.8607
65.3167 1.8518
65.3333 1.8429
65.3500 1.8340
65.3667 1.8251
65.3833 1.8162
65.4000 1.8073
65.4167 1.7984
65.4333 1.7895
65.4500 1.7806
65.4667 1.7717
65.4833 1.7628
65.5000 1.7539
65.5167 1.7450
65.5333 1.7361
65.5500 1.7272
65.5667 1.7183
65.5833 1.7094
65.6000 1.7005
65.6167 1.6916
65.6333 1.6827
65.6500 1.6738
65.6667 1.6649
65.6833 1.6560
65.7000 1.6471
65.7167 1.6382
65.7333 1.6293
65.7500 1.6204
65.7667 1.6115
65.7833 1.6026
65.8000 1.5937
65.8167 1.5848
65.8333 1.5759
65.8500 1.5670
65.8667 1.5581
65.8833 1.5492
65.9000 1.5403
65.9167 1.5314
65.9333 1.5225
65.9500 1.5136
65.9667 1.5047
65.9833 1.4958
66.0000 1.4869
66.0167 1.4780
66.0333 1.4691
66.0500 1.4602
66.0667 1.4513
66.0833 1.4424
66.1000 1.4335
66.1167 1.4246
66.1333 1.4157
66.1500 1.4068
66.1667 1.3979
66.1833 1.3890
66.2000 1.3801
66.2167 1.3712
66.2333 1.3623
66.2500 1.3534
66.2667 1.3445
66.2833 1.3356
66.3000 1.3267
66.3167 1.3178
66.3333 1.3089
66.3500 1.3000
66.3667 1.2911
66.3833 1.2822
66.4000 1.2733
66.4167 1.2644
66.4333 1.2555
66.4500 1.2466
66.4667 1.2377
66.4833 1.2288
66.5000 1.2199
66.5167 1.2110
66.5333 1.2021
66.5500 1.1932
66.5667 1.1843
66.5833 1.1754
66.6000 1.1665
66.6167 1.1576
66.6333 1.1487
66.6500 1.1398
66.6667 1.1309
66.6833 1.1220
66.7000 1.1131
66.7167 1.1042
66.7333 1.0953
66.7500 1.0864
66.7667 1.0775
66.7833 1.0686
66.8000 1.0597
66.8167 1.0508
66.8333 1.0419
66.8500 1.0330
66.8667 1.0241
66.8833 1.0152
66.9000 1.0063
66.9167 0.9974
66.9333 0.9885
66.9500 0.9796
66.9667 0.9707
66.9833 0.9618
67.0000 0.9718
67.0167 0.9818
67.0333 0.9918
67.0500 1.0018
67.0667 1.0118
67.0833 1.0218
67.1000 1.0318
67.1167 1.0418
67.1333 1.0518
67.1500 1.0618
67.1667 1.0718
67.1833 1.0818
67.2000 1.0918
67.2167 1.1018
67.2333 1.1118
67.2500 1.1218
67.2667 1.1318
67.2833 1.1418
67.3000 1.1518
67.3167 1.1618
67.3333 1.1718
67.3500 1.1818
67.3667 1.1918
67.3833 1.2018
67.4000 1.2118
67.4167 1.2218
67.4333 1.2318
67.4500 1.2418
67.4667 1.2518
67.4833 1.2618
67.5000 1.2718
67.5167 1.2818
67.5333 1.2918
67.5500 1.3018
67.5667 1.3118
67.5833 1.3218
67.6000 1.3318
67.6167 1.3418
67.6333 1.3518
67.6500 1.3618
67.6667 1.3718
67.6833 1.3818
67.7000 1.3918
67.7167 1.4018
67.7333 1.4118
67.7500 1.4218
67.7667 1.4318
67.7833 1.4418
67.8000 1.4518
67.8167 1.4618
67.8333 1.4718
67.8500 1.4818
67.8667 1.4918
67.8833 1.5018
67.9000 1.5118
67.9167 1.5218
67.9333 1.5318
67.9500 1.5418
67.9667 1.5518
67.9833 1.5618
68.0000 1.5718
68.0167 1.5818
68.0333 1.5918
68.0500 1.6018
68.0667 1.6118
68.0833 1.6218
68.1000 1.6318
68.1167 1.6418
68.1333 1.6518
68.1500 1.6618
68.1667 1.6718
68.1833 1.6818
68.2000 1.6918
68.2167 1.7018
68.2333 1.7118
68.2500 1.7218
68.2667 1.7318
68.2833 1.7418
68.3000 1.7518
68.3167 1.7618
68.3333 1.7718
68.3500 1.7818
68.3667 1.7918
68.3833 1.8018
68.4000 1.8118
68.4167 1.8218
68.4333 1.8318
68.4500 1.8418
68.4667 1.8518
68.4833 1.8618
68.5000 1.8718
68.5167 1.8818
68.5333 1.8918
68.5500 1.9018
68.5667 1.9118
68.5833 1.9218
68.6000 1.9318
68.6167 1.9418
68.6333 1.9518
68.6500 1.9618
68.6667 1.9718
68.6833 1.9818
68.7000 1.9918
68.7167 2.0018
68.7333 2.0118
68.7500 2.0218
68.7667 2.0318
68.7833 2.0418
68.8000 2.0518
68.8167 2.0618
68.8333 2.0718
68.8500 2.0818
68.8667 2.0918
68.8833 2.1018
68.9000 2.1118
68.9167 2.1218
68.9333 2.1318
68.9500 2.1418
68.9667 2.1518
68.9833 2.1618
69.0000 2.1529
69.0167 2.1440
69.0333 2.1351
69.0500 2.1262
69.0667 2.1173
69.0833 2.1084
69.1000 2.0995
69.1167 2.0906
69.1333 2.0817
69.1500 2.0728
69.1667 2.0639
69.1833 2.0550
69.2000 2.0461
69.2167 2.0372
69.2333 2.0283
69.2500 2.0194
69.2667 2.0105
69.2833 2.0016
69.3000 1.9927
69.3167 1.9838
69.3333 1.9749
69.3500 1.9660
69.3667 1.9571
69.3833 1.9482
69.4000 1.9393
69.4167 1.9304
69.4333 1.9215
69.4500 1.9126
69.4667 1.9037
69.4833 1.8948
69.5000 1.8859
69.5167 1.8770
69.5333 1.8681
69.5500 1.8592
69.5667 1.8503
69.5833 1.8414
69.6000 1.8325
69.6167 1.8236
69.6333 1.8147
69.6500 1.8058
69.6667 1.7969
69.6833 1.7880
69.7000 1.7791
69.7167 1.7702
69.7333 1.7613
69.7500 1.7524
69.7667 1.7435
69.7833 1.7346
69.8000 1.7257
69.8167 1.7168
69.8333 1.7079
69.8500 1.6990
69.8667 1.6901
69.8833 1.6812
69.9000 1.6723
69.9167 1.6634
69.9333 1.6545
69.9500 1.6456
69.9667 1.6367
69.9833 1.6278
70.0000 1.6189
70.0167 1.6100
70.0333 1.6011
70.0500 1.5922
70.0667 1.5833
70.0833 1.5744
70.1000 1.5655
70.1167 1.5566
70.1333 1.5477
70.1500 1.5388
70.1667 1.5299
70.1833 1.5210
70.2000 1.5121
70.2167 1.5032
70.2333 1.4943
70.2500 1.4854
70.2667 1.4765
70.2833 1.4676
70.3000 1.4587
70.3167 1.4498
70.3333 1.4409
70.3500 1.4320
70.3667 1.4231
70.3833 1.4142
70.4000 1.4053
70.4167 1.3964
70.4333 1.3875
70.4500 1.3786
70.4667 1.3697
70.4833 1.3608
70.5000 1.3519
70.5167 1.3430
70.5333 1.3341
70.5500 1.3252
70.5667 1.3163
70.5833 1.3074
70.6000 1.2985
70.6167 1.2896
70.6333 1.2807
70.6500 1.2718
70.6667 1.2629
70.6833 1.2540
70.7000 1.2451
70.7167 1.2362
70.7333 1.2273
70.7500 1.2184
70.7667 1.2095
70.7833 1.2006
70.8000 1.1917
70.8167 1.1828
70.8333 1.1739
70.8500 1.1650
70.8667 1.1561
70.8833 1.1472
70.9000 1.1383
70.9167 1.1294
70.9333 1.1205
70.9500 1.1116
70.9667 1.1027
70.9833 1.0938
71.0000 1.1038
71.0167 1.1138
71.0333 1.1238
71.0500 1.1338
71.0667 1.1438
71.0833 1.1538
71.1000 1.1638
71.1167 1.1738
71.1333 1.1838
71.1500 1.1938
71.1667 1.2038
71.1833 1.2138
71.2000 1.2238
71.2167 1.2338
71.2333 1.2438
71.2500 1.2538
71.2667 1.2638
71.2833 1.2738
71.3000 1.2838
71.3167 1.2938
71.3333 1.3038
71.3500 1.3138
71.3667 1.3238
71.3833 1.3338
71.4000 1.3438
71.4167 1.3538
71.4333 1.3638
71.4500 1.3738
71.4667 1.3838
71.4833 1.3938
71.5000 1.4038
71.5167 1.4138
71.5333 1.4238
71.5500 1.4338
71.5667 1.4438
71.5833 1.4538
71.6000 1.4638
71.6167 1.4738
71.6333 1.4838
71.6500 1.4938
71.6667 1.5038
71.6833 1.5138
71.7000 1.5238
71.7167 1.5338
71.7333 1.5438
71.7500 1.5538
71.7667 1.5638
71.7833 1.5738
71.8000 1.5838
71.8167 1.5938
71.8333 1.6038
71.8500 1.6138
71.8667 1.6238
71.8833 1.6338
71.9000 1.6438
71.9167 1.6538
71.9333 1.6638
71.9500 1.6738
71.9667 1.6838
71.9833 1.6938
72.0000 1.7038
72.0167 1.7138
72.0333 1.7238
72.0500 1.7338
72.0667 1.7438
72.0833 1.7538
72.1000 1.7638
72.1167 1.7738
72.1333 1.7838
72.1500 1.7938
72.1667 1.8038
72.1833 1.8138
72.2000 1.8238
72.2167 1.8338
72.2333 1.8438
72.2500 1.8538
72.2667 1.8638
72.2833 1.8738
72.3000 1.8838
72.3167 1.8938
72.3333 1.9038
72.3500 1.9138
72.3667 1.9238
72.3833 1.9338
72.4000 1.9438
72.4167 1.9538
72.4333 1.9638
72.4500 1.9738
72.4667 1.9838
72.4833 1.9938
72.5000 2.0038
72.5167 2.0138
72.5333 2.0238
72.5500 2.0338
72.5667 2.0438
72.5833 2.0538
72.6000 2.0638
72.6167 2.0738
72.6333 2.0838
72.6500 2.0938
72.6667 2.1038
72.6833 2.1138
72.7000 2.1238
72.7167 2.1338
72.7333 2.1438
72.7500 2.1538
72.7667 2.1638
72.7833 2.1738
72.8000 2.1838
72.8167 2.1938
72.8333 2.2038
72.8500 2.2138
72.8667 2.2238
72.8833 2.2338
72.9000 2.2438
72.9167 2.2538
72.9333 2.2638
72.9500 2.2738
72.9667 2.2838
72.9833 2.2938
73.0000 2.2849
73.0167 2.2760
73.0333 2.2671
73.0500 2.2582
73.0667 2.2493
73.0833 2.2404
73.1000 2.2315
73.1167 2.2226
73.1333 2.2137
73.1500 2.2048
73.1667 2.1959
73.1833 2.1870
73.2000 2.1781
73.2167 2.1692
73.2333 2.1603
73.2500 2.1514
73.2667 2.1425
73.2833 2.1336
73.3000 2.1247
73.3167 2.1158
73.3333 2.1069
73.3500 2.0980
73.3667 2.0891
73.3833 2.0802
73.4000 2.0713
73.4167 2.0624
73.4333 2.0535
73.4500 2.0446
73.4667 2.0357
73.4833 2.0268
73.5000 2.0179
73.5167 2.0090
73.5333 2.0001
73.5500 1.9912
73.5667 1.9823
73.5833 1.9734
73.6000 1.9645
73.6167 1.9556
73.6333 1.9467
73.6500 1.9378
73.6667 1.9289
73.6833 1.9200
73.7000 1.9111
73.7167 1.9022
73.7333 1.8933
73.7500 1.8844
73.7667 1.8755
73.7833 1.8666
73.8000 1.8577
73.8167 1.8488
73.8333 1.8399
73.8500 1.8310
73.8667 1.8221
73.8833 1.8132
73.9000 1.8043
73.9167 1.7954
73.9333 1.7865
73.9500 1.7776
73.9667 1.7687
73.9833 1.7598
74.0000 1.7509
74.0167 1.7420
74.0333 1.7331
74.0500 1.7242
74.0667 1.7153
74.0833 1.7064
74.1000 1.6975
74.1167 1.6886
74.1333 1.6797
74.1500 1.6708
74.1667 1.6619
74.1833 1.6530
74.2000 1.6441
74.2167 1.6352
74.2333 1.6263
74.2500 1.6174
74.2667 1.6085
74.2833 1.5996
74.3000 1.5907
74.3167 1.5818
74.3333 1.5729
74.3500 1.5640
74.3667 1.5551
74.3833 1.5462
74.4000 1.5373
74.4167 1.5284
74.4333 1.5195
74.4500 1.5106
74.4667 1.5017
74.4833 1.4928
74.5000 1.4839
74.5167 1.4750
74.5333 1.4661
74.5500 1.4572
74.5667 1.4483
74.5833 1.4394
74.6000 1.4305
74.6167 1.4216
74.6333 1.4127
74.6500 1.4038
74.6667 1.3949
74.6833 1.3860
74.7000 1.3771
74.7167 1.3682
74.7333 1.3593
74.7500 1.3504
74.7667 1.3415
74.7833 1.3326
74.8000 1.3237
74.8167 1.3148
74.8333 1.3059
74.8500 1.2970
74.8667 1.2881
74.8833 1.2792
74.9000 1.2703
74.9167 1.2614
74.9333 1.2525
74.9500 1.2436
74.9667 1.2347
74.9833 1.2258
75.0000 1.2358
75.0167 1.2458
75.0333 1.2558
75.0500 1.2658
75.0667 1.2758
75.0833 1.2858
75.1000 1.2958
75.1167 1.3058
75.1333 1.3158
75.1500 1.3258
75.1667 1.3358
75.1833 1.3458
75.2000 1.3558
75.2167 1.3658
75.2333 1.3758
75.2500 1.3858
75.2667 1.3958
75.2833 1.4058
75.3000 1.4158
75.3167 1.4258
75.3333 1.4358
75.3500 1.4458
75.3667 1.4558
75.3833 1.4658
75.4000 1.4758
75.4167 1.4858
75.4333 1.4958
75.4500 1.5058
75.4667 1.5158
75.4833 1.5258
75.5000 1.5358
75.5167 1.5458
75.5333 1.5558
75.5500 1.5658
75.5667 1.5758
75.5833 1.5858
75.6000 1.5958
75.6167 1.6058
75.6333 1.6158
75.6500 1.6258
75.6667 1.6358
75.6833 1.6458
75.7000 1.6558
75.7167 1.6658
75.7333 1.6758
75.7500 1.6858
75.7667 1.6958
75.7833 1.7058
75.8000 1.7158
75.8167 1.7258
75.8333 1.7358
75.8500 1.7458
75.8667 1.7558
75.8833 1.7658
75.9000 1.7758
75.9167 1.7858
75.9333 1.7958
75.9500 1.8058
75.9667 1.8158
75.9833 1.8258
76.0000 1.8358
76.0167 1.8458
76.0333 1.8558
76.0500 1.8658
76.0667 1.8758
76.0833 1.8858
76.1000 1.8958
76.1167 1.9058
76.1333 1.9158
76.1500 1.9258
76.1667 1.9358
76.1833 1.9458
76.2000 1.9558
76.2167 1.9658
76.2333 1.9758
76.2500 1.9858
76.2667 1.9958
76.2833 2.0058
76.3000 2.0158
76.3167 2.0258
76.3333 2.0358
76.3500 2.0458
76.3667 2.0558
76.3833 2.0658
76.4000 2.0758
76.4167 2.0858
76.4333 2.0958
76.4500 2.1058
76.4667 2.1158
76.4833 2.1258
76.5000 2.1358
76.5167 2.1458
76.5333 2.1558
76.5500 2.1658
76.5667 2.1758
76.5833 2.1858
76.6000 2.1958
76.6167 2.2058
76.6333 2.2158
76.6500 2.2258
76.6667 2.2358
76.6833 2.2458
76.7000 2.2558
76.7167 2.2658
76.7333 2.2758
76.7500 2.2858
76.7667 2.2958
76.7833 2.3058
76.8000 2.3158
76.8167 2.3258
76.8333 2.3358
76.8500 2.3458
76.8667 2.3558
76.8833 2.3658
76.9000 2.3758
76.9167 2.3858
76.9333 2.3958
76.9500 2.4058
76.9667 2.4158
76.9833 2.4258
77.0000 2.4169
77.0167 2.4080
77.0333 2.3991
77.0500 2.3902
77.0667 2.3813
77.0833 2.3724
77.1000 2.3635
77.1167 2.3546
77.1333 2.3457
77.1500 2.3368
77.1667 2.3279
77.1833 2.3190
77.2000 2.3101
77.2167 2.3012
77.2333 2.2923
77.2500 2.2834
77.2667 2.2745
77.2833 2.2656
77.3000 2.2567
77.3167 2.2478
77.3333 2.2389
77.3500 2.2300
77.3667 2.2211
77.3833 2.2122
77.4000 2.2033
77.4167 2.1944
77.4333 2.1855
77.4500 2.1766
77.4667 2.1677
77.4833 2.1588
77.5000 2.1499
77.5167 2.1410
77.5333 2.1321
77.5500 2.1232
77.5667 2.1143
77.5833 2.1054
77.6000 2.0965
77.6167 2.0876
77.6333 2.0787
77.6500 2.0698
77.6667 2.0609
77.6833 2.0520
77.7000 2.0431
77.7167 2.0342
77.7333 2.0253
77.7500 2.0164
77.7667 2.0075
77.7833 1.9986
77.8000 1.9897
77.8167 1.9808
77.8333 1.9719
77.8500 1.9630
77.8667 1.9541
77.8833 1.9452
77.9000 1.9363
77.9167 1.9274
77.9333 1.9185
77.9500 1.9096
77.9667 1.9007
77.9833 1.8918
78.0000 1.8829
78.0167 1.8740
78.0333 1.8651
78.0500 1.8562
78.0667 1.8473
78.0833 1.8384
78.1000 1.8295
78.1167 1.8206
78.1333 1.8117
78.1500 1.8028
78.1667 1.7939
78.1833 1.7850
78.2000 1.7761
78.2167 1.7672
78.2333 1.7583
78.2500 1.7494
78.2667 1.7405
78.2833 1.7316
78.3000 1.7227
78.3167 1.7138
78.3333 1.7049
78.3500 1.6960
78.3667 1.6871
78.3833 1.6782
78.4000 1.6693
78.4167 1.6604
78.4333 1.6515
78.4500 1.6426
78.4667 1.6337
78.4833 1.6248
78.5000 1.6159
78.5167 1.6070
78.5333 1.5981
78.5500 1.5892
78.5667 1.5803
78.5833 1.5714
78.6000 1.5625
78.6167 1.5536
78.6333 1.5447
78.6500 1.5358
78.6667 1.5269
78.6833 1.5180
78.7000 1.5091
78.7167 1.5002
78.7333 1.4913
78.7500 1.4824
78.7667 1.4735
78.7833 1.4646
78.8000 1.4557
78.8167 1.4468
78.8333 1.4379
78.8500 1.4290
78.8667 1.4201
78.8833 1.4112
78.9000 1.4023
78.9167 1.3934
78.9333 1.3845
78.9500 1.3756
78.9667 1.3667
78.9833 1.3578
79.0000 1.3678
79.0167 1.3778
79.0333 1.3878
79.0500 1.3978
79.0667 1.4078
79.0833 1.4178
79.1000 1.4278
79.1167 1.4378
79.1333 1.4478
79.1500 1.4578
79.1667 1.4678
79.1833 1.4778
79.2000 1.4878
79.2167 1.4978
79.2333 1.5078
79.2500 1.5178
79.2667 1.5278
79.2833 1.5378
79.3000 1.5478
79.3167 1.5578
79.3333 1.5678
79.3500 1.5778
79.3667 1.5878
79.3833 1.5978
79.4000 1.6078
79.4167 1.6178
79.4333 1.6278
79.4500 1.6378
79.4667 1.6478
79.4833 1.6578
79.5000 1.6678
79.5167 1.6778
79.5333 1.6878
79.5500 1.6978
79.5667 1.7078
79.5833 1.7178
79.6000 1.7278
79.6167 1.7378
79.6333 1.7478
79.6500 1.7578
79.6667 1.7678
79.6833 1.7778
79.7000 1.7878
79.7167 1.7978
79.7333 1.8078
79.7500 1.8178
79.7667 1.8278
79.7833 1.8378
79.8000 1.8478
79.8167 1.8578
79.8333 1.8678
79.8500 1.8778
79.8667 1.8878
79.8833 1.8978
79.9000 1.9078
79.9167 1.9178
79.9333 1.9278
79.9500 1.9378
79.9667 1.9478
79.9833 1.9578
80.0000 1.9678
80.0167 1.9778
80.0333 1.9878
80.0500 1.9978
80.0667 2.0078
80.0833 2.0178
80.1000 2.0278
80.1167 2.0378
80.1333 2.0478
80.1500 2.0578
80.1667 2.0678
80.1833 2.0778
80.2000 2.0878
80.2167 2.0978
80.2333 2.1078
80.2500 2.1178
80.2667 2.1278
80.2833 2.1378
80.3000 2.1478
80.3167 2.1578
80.3333 2.1678
80.3500 2.1778
80.3667 2.1878
80.3833 2.1978
80.4000 2.2078
80.4167 2.2178
80.4333 2.2278
80.4500 2.2378
80.4667 2.2478
80.4833 2.2578
80.5000 2.2678
80.5167 2.2778
80.5333 2.2878
80.5500 2.2978
80.5667 2.3078
80.5833 2.3178
80.6000 2.3278
80.6167 2.3378
80.6333 2.3478
80.6500 2.3578
80.6667 2.3678
80.6833 2.3778
80.7000 2.3878
80.7167 2.3978
80.7333 2.4078
80.7500 2.4178
80.7667 2.4278
80.7833 2.4378
80.8000 2.4478
80.8167 2.4578
80.8333 2.4678
80.8500 2.4778
80.8667 2.4878
80.8833 2.4978
80.9000 2.5078
80.9167 2.5178
80.9333 2.5278
80.9500 2.5378
80.9667 2.5478
80.9833 2.5578
81.0000 2.5489
81.0167 2.5400
81.0333 2.5311
81.0500 2.5222
81.0667 2.5133
81.0833 2.5044
81.1000 2.4955
81.1167 2.4866
81.1333 2.4777
81.1500 2.4688
81.1667 2.4599
81.1833 2.4510
81.2000 2.4421
81.2167 2.4332
81.2333 2.4243
81.2500 2.4154
81.2667 2.4065
81.2833 2.3976
81.3000 2.3887
81.3167 2.3798
81.3333 2.3709
81.3500 2.3620
81.3667 2.3531
81.3833 2.3442
81.4000 2.3353
81.4167 2.3264
81.4333 2.3175
81.4500 2.3086
81.4667 2.2997
81.4833 2.2908
81.5000 2.2819
81.5167 2.2730
81.5333 2.2641
81.5500 2.2552
81.5667 2.2463
81.5833 2.2374
81.6000 2.2285
81.6167 2.2196
81.6333 2.2107
81.6500 2.2018
81.6667 2.1929
81.6833 2.1840
81.7000 2.1751
81.7167 2.1662
81.7333 2.1573
81.7500 2.1484
81.7667 2.1395
81.7833 2.1306
81.8000 2.1217
81.8167 2.1128
81.8333 2.1039
81.8500 2.0950
81.8667 2.0861
81.8833 2.0772
81.9000 2.0683
81.9167 2.0594
81.9333 2.0505
81.9500 2.0416
81.9667 2.0327
81.9833 2.0238
82.0000 2.0149
82.0167 2.0060
82.0333 1.9971
82.0500 1.9882
82.0667 1.9793
82.0833 1.9704
82.1000 1.9615
82.1167 1.9526
82.1333 1.9437
82.1500 1.9348
82.1667 1.9259
82.1833 1.9170
82.2000 1.9081
82.2167 1.8992
82.2333 1.8903
82.2500 1.8814
82.2667 1.8725
82.2833 1.8636
82.3000 1.8547
82.3167 1.8458
82.3333 1.8369
82.3500 1.8280
82.3667 1.8191
82.3833 1.8102
82.4000 1.8013
82.4167 1.7924
82.4333 1.7835
82.4500 1.7746
82.4667 1.7657
82.4833 1.7568
82.5000 1.7479
82.5167 1.7390
82.5333 1.7301
82.5500 1.7212
82.5667 1.7123
82.5833 1.7034
82.6000 1.6945
82.6167 1.6856
82.6333 1.6767
82.6500 1.6678
82.6667 1.6589
82.6833 1.6500
82.7000 1.6411
82.7167 1.6322
82.7333 1.6233
82.7500 1.6144
82.7667 1.6055
82.7833 1.5966
82.8000 1.5877
82.8167 1.5788
82.8333 1.5699
82.8500 1.5610
82.8667 1.5521
82.8833 1.5432
82.9000 1.5343
82.9167 1.5254
82.9333 1.5165
82.9500 1.5076
82.9667 1.4987
82.9833 1.4898
83.0000 1.4998
83.0167 1.5098
83.0333 1.5198
83.0500 1.5298
83.0667 1.5398
83.0833 1.5498
83.1000 1.5598
83.1167 1.5698
83.1333 1.5798
83.1500 1.5898
83.1667 1.5998
83.1833 1.6098
83.2000 1.6198
83.2167 1.6298
83.2333 1.6398
83.2500 1.6498
83.2667 1.6598
83.2833 1.6698
83.3000 1.6798
83.3167 1.6898
83.3333 1.6998
83.3500 1.7098
83.3667 1.7198
83.3833 1.7298
83.4000 1.7398
83.4167 1.7498
83.4333 1.7598
83.4500 1.7698
83.4667 1.7798
83.4833 1.7898
83.5000 1.7998
83.5167 1.8098
83.5333 1.8198
83.5500 1.8298
83.5667 1.8398
83.5833 1.8498
83.6000 1.8598
83.6167 1.8698
83.6333 1.8798
83.6500 1.8898
83.6667 1.8998
83.6833 1.9098
83.7000 1.9198
83.7167 1.9298
83.7333 1.9398
83.7500 1.9498
83.7667 1.9598
83.7833 1.9698
83.8000 1.9798
83.8167 1.9898
83.8333 1.9998
83.8500 2.0098
83.8667 2.0198
83.8833 2.0298
83.9000 2.0398
83.9167 2.0498
83.9333 2.0598
83.9500 2.0698
83.9667 2.0798
83.9833 2.0898
84.0000 2.0998
84.0167 2.1098
84.0333 2.1198
84.0500 2.1298
84.0667 2.1398
84.0833 2.1498
84.1000 2.1598
84.1167 2.1698
84.1333 2.1798
84.1500 2.1898
84.1667 2.1998
84.1833 2.2098
84.2000 2.2198
84.2167 2.2298
84.2333 2.2398
84.2500 2.2498
84.2667 2.2598
84.2833 2.2698
84.3000 2.2798
84.3167 2.2898
84.3333 2.2998
84.3500 2.3098
84.3667 2.3198
84.3833 2.3298
84.4000 2.3398
84.4167 2.3498
84.4333 2.3598
84.4500 2.3698
84.4667 2.3798
84.4833 2.3898
84.5000 2.3998
84.5167 2.4098
84.5333 2.4198
84.5500 2.4298
84.5667 2.4398
84.5833 2.4498
84.6000 2.4598
84.6167 2.4698
84.6333 2.4798
84.6500 2.4898
84.6667 2.4998
84.6833 2.5098
84.7000 2.5198
84.7167 2.5298
84.7333 2.5398
84.7500 2.5498
84.7667 2.5598
84.7833 2.5698
84.8000 2.5798
84.8167 2.5898
84.8333 2.5998
84.8500 2.6098
84.8667 2.6198
84.8833 2.6298
84.9000 2.6398
84.9167 2.6498
84.9333 2.6598
84.9500 2.6698
84.9667 2.6798
84.9833 2.6898
85.0000 2.6809
85.0167 2.6720
85.0333 2.6631
85.0500 2.6542
85.0667 2.6453
85.0833 2.6364
85.1000 2.6275
85.1167 2.6186
85.1333 2.6097
85.1500 2.6008
85.1667 2.5919
85.1833 2.5830
85.2000 2.5741
85.2167 2.5652
85.2333 2.5563
85.2500 2.5474
85.2667 2.5385
85.2833 2.5296
85.3000 2.5207
85.3167 2.5118
85.3333 2.5029
85.3500 2.4940
85.3667 2.4851
85.3833 2.4762
85.4000 2.4673
85.4167 2.4584
85.4333 2.4495
85.4500 2.4406
85.4667 2.4317
85.4833 2.4228
85.5000 2.4139
85.5167 2.4050
85.5333 2.3961
85.5500 2.3872
85.5667 2.3783
85.5833 2.3694
85.6000 2.3605
85.6167 2.3516
85.6333 2.3427
85.6500 2.3338
85.6667 2.3249
85.6833 2.3160
85.7000 2.3071
85.7167 2.2982
85.7333 2.2893
85.7500 2.2804
85.7667 2.2715
85.7833 2.2626
85.8000 2.2537
85.8167 2.2448
85.8333 2.2359
85.8500 2.2270
85.8667 2.2181
85.8833 2.2092
85.9000 2.2003
85.9167 2.1914
85.9333 2.1825
85.9500 2.1736
85.9667 2.1647
85.9833 2.1558
86.0000 2.1469
86.0167 2.1380
86.0333 2.1291
86.0500 2.1202
86.0667 2.1113
86.0833 2.1024
86.1000 2.0935
86.1167 2.0846
86.1333 2.0757
86.1500 2.0668
86.1667 2.0579
86.1833 2.0490
86.2000 2.0401
86.2167 2.0312
86.2333 2.0223
86.2500 2.0134
86.2667 2.0045
86.2833 1.9956
86.3000 1.9867
86.3167 1.9778
86.3333 1.9689
86.3500 1.9600
86.3667 1.9511
86.3833 1.9422
86.4000 1.9333
86.4167 1.9244
86.4333 1.9155
86.4500 1.9066
86.4667 1.8977
86.4833 1.8888
86.5000 1.8799
86.5167 1.8710
86.5333 1.8621
86.5500 1.8532
86.5667 1.8443
86.5833 1.8354
86.6000 1.8265
86.6167 1.8176
86.6333 1.8087
86.6500 1.7998
86.6667 1.7909
86.6833 1.7820
86.7000 1.7731
86.7167 1.7642
86.7333 1.7553
86.7500 1.7464
86.7667 1.7375
86.7833 1.7286
86.8000 1.7197
86.8167 1.7108
86.8333 1.7019
86.8500 1.6930
86.8667 1.6841
86.8833 1.6752
86.9000 1.6663
86.9167 1.6574
86.9333 1.6485
86.9500 1.6396
86.9667 1.6307
86.9833 1.6218
87.0000 1.6318
87.0167 1.6418
87.0333 1.6518
87.0500 1.6618
87.0667 1.6718
87.0833 1.6818
87.1000 1.6918
87.1167 1.7018
87.1333 1.7118
87.1500 1.7218
87.1667 1.7318
87.1833 1.7418
87.2000 1.7518
87.2167 1.7618
87.2333 1.7718
87.2500 1.7818
87.2667 1.7918
87.2833 1.8018
87.3000 1.8118
87.3167 1.8218
87.3333 1.8318
87.3500 1.8418
87.3667 1.8518
87.3833 1.8618
87.4000 1.8718
87.4167 1.8818
87.4333 1.8918
87.4500 1.9018
87.4667 1.9118
87.4833 1.9218
87.5000 1.9318
87.5167 1.9418
87.5333 1.9518
87.5500 1.9618
87.5667 1.9718
87.5833 1.9818
87.6000 1.9918
87.6167 2.0018
87.6333 2.0118
87.6500 2.0218
87.6667 2.0318
87.6833 2.0418
87.7000 2.0518
87.7167 2.0618
87.7333 2.0718
87.7500 2.0818
87.7667 2.0918
87.7833 2.1018
87.8000 2.1118
87.8167 2.1218
87.8333 2.1318
87.8500 2.1418
87.8667 2.1518
87.8833 2.1618
87.9000 2.1718
87.9167 2.1818
87.9333 2.1918
87.9500 2.2018
87.9667 2.2118
87.9833 2.2218
88.0000 2.2318
88.0167 2.2418
88.0333 2.2518
88.0500 2.2618
88.0667 2.2718
88.0833 2.2818
88.1000 2.2918
88.1167 2.3018
88.1333 2.3118
88.1500 2.3218
88.1667 2.3318
88.1833 2.3418
88.2000 2.3518
88.2167 2.3618
88.2333 2.3718
88.2500 2.3818
88.2667 2.3918
88.2833 2.4018
88.3000 2.4118
88.3167 2.4218
88.3333 2.4318
88.3500 2.4418
88.3667 2.4518
88.3833 2.4618
88.4000 2.4718
88.4167 2.4818
88.4333 2.4918
88.4500 2.5018
88.4667 2.5118
88.4833 2.5218
88.5000 2.5318
88.5167 2.5418
88.5333 2.5518
88.5500 2.5618
88.5667 2.5718
88.5833 2.5818
88.6000 2.5918
88.6167 2.6018
88.6333 2.6118
88.6500 2.6218
88.6667 2.6318
88.6833 2.6418
88.7000 2.6518
88.7167 2.6618
88.7333 2.6718
88.7500 2.6818
88.7667 2.6918
88.7833 2.7018
88.8000 2.7118
88.8167 2.7218
88.8333 2.7318
88.8500 2.7418
88.8667 2.7518
88.8833 2.7618
88.9000 2.7718
88.9167 2.7818
88.9333 2.7918
88.9500 2.8018
88.9667 2.8118
88.9833 2.8218
89.0000 2.8129
89.0167 2.8040
89.0333 2.7951
89.0500 2.7862
89.0667 2.7773
89.0833 2.7684
89.1000 2.7595
89.1167 2.7506
89.1333 2.7417
89.1500 2.7328
89.1667 2.7239
89.1833 2.7150
89.2000 2.7061
89.2167 2.6972
89.2333 2.6883
89.2500 2.6794
89.2667 2.6705
89.2833 2.6616
89.3000 2.6527
89.3167 2.6438
89.3333 2.6349
89.3500 2.6260
89.3667 2.6171
89.3833 2.6082
89.4000 2.5993
89.4167 2.5904
89.4333 2.5815
89.4500 2.5726
89.4667 2.5637
89.4833 2.5548
89.5000 2.5459
89.5167 2.5370
89.5333 2.5281
89.5500 2.5192
89.5667 2.5103
89.5833 2.5014
89.6000 2.4925
89.6167 2.4836
89.6333 2.4747
89.6500 2.4658
89.6667 2.4569
89.6833 2.4480
89.7000 2.4391
89.7167 2.4302
89.7333 2.4213
89.7500 2.4124
89.7667 2.4035
89.7833 2.3946
89.8000 2.3857
89.8167 2.3768
89.8333 2.3679
89.8500 2.3590
89.8667 2.3501
89.8833 2.3412
89.9000 2.3323
89.9167 2.3234
89.9333 2.3145
89.9500 2.3056
89.9667 2.2967
89.9833 2.2878
90.0000 2.2789
90.0167 2.2700
90.0333 2.2611
90.0500 2.2522
90.0667 2.2433
90.0833 2.2344
90.1000 2.2255
90.1167 2.2166
90.1333 2.2077
90.1500 2.1988
90.1667 2.1899
90.1833 2.1810
90.2000 2.1721
90.2167 2.1632
90.2333 2.1543
90.2500 2.1454
90.2667 2.1365
90.2833 2.1276
90.3000 2.1187
90.3167 2.1098
90.3333 2.1009
90.3500 2.0920
90.3667 2.0831
90.3833 2.0742
90.4000 2.0653
90.4167 2.0564
90.4333 2.0475
90.4500 2.0386
90.4667 2.0297
90.4833 2.0208
90.5000 2.0119
90.5167 2.0030
90.5333 1.9941
90.5500 1.9852
90.5667 1.9763
90.5833 1.9674
90.6000 1.9585
90.6167 1.9496
90.6333 1.9407
90.6500 1.9318
90.6667 1.9229
90.6833 1.9140
90.7000 1.9051
90.7167 1.8962
90.7333 1.8873
90.7500 1.8784
90.7667 1.8695
90.7833 1.8606
90.8000 1.8517
90.8167 1.8428
90.8333 1.8339
90.8500 1.8250
90.8667 1.8161
90.8833 1.8072
90.9000 1.7983
90.9167 1.7894
90.9333 1.7805
90.9500 1.7716
90.9667 1.7627
90.9833 1.7538
91.0000 1.7638
91.0167 1.7738
91.0333 1.7838
91.0500 1.7938
91.0667 1.8038
91.0833 1.8138
91.1000 1.8238
91.1167 1.8338
91.1333 1.8438
91.1500 1.8538
91.1667 1.8638
91.1833 1.8738
91.2000 1.8838
91.2167 1.8938
91.2333 1.9038
91.2500 1.9138
91.2667 1.9238
91.2833 1.9338
91.3000 1.9438
91.3167 1.9538
91.3333 1.9638
91.3500 1.9738
91.3667 1.9838
91.3833 1.9938
91.4000 2.0038
91.4167 2.0138
91.4333 2.0238
91.4500 2.0338
91.4667 2.0438
91.4833 2.0538
91.5000 2.0638
91.5167 2.0738
91.5333 2.0838
91.5500 2.0938
91.5667 2.1038
91.5833 2.1138
91.6000 2.1238
91.6167 2.1338
91.6333 2.1438
91.6500 2.1538
91.6667 2.1638
91.6833 2.1738
91.7000 2.1838
91.7167 2.1938
91.7333 2.2038
91.7500 2.2138
91.7667 2.2238
91.7833 2.2338
91.8000 2.2438
91.8167 2.2538
91.8333 2.2638
91.8500 2.2738
91.8667 2.2838
91.8833 2.2938
91.9000 2.3038
91.9167 2.3138
91.9333 2.3238
91.9500 2.3338
91.9667 2.3438
91.9833 2.3538
92.0000 2.3638
92.0167 2.3738
92.0333 2.3838
92.0500 2.3938
92.0667 2.4038
92.0833 2.4138
92.1000 2.4238
92.1167 2.4338
92.1333 2.4438
92.1500 2.4538
92.1667 2.4638
92.1833 2.4738
92.2000 2.4838
92.2167 2.4938
92.2333 2.5038
92.2500 2.5138
92.2667 2.5238
92.2833 2.5338
92.3000 2.5438
92.3167 2.5538
92.3333 2.5638
92.3500 2.5738
92.3667 2.5838
92.3833 2.5938
92.4000 2.6038
92.4167 2.6138
92.4333 2.6238
92.4500 2.6338
92.4667 2.6438
92.4833 2.6538
92.5000 2.6638
92.5167 2.6738
92.5333 2.6838
92.5500 2.6938
92.5667 2.7038
92.5833 2.7138
92.6000 2.7238
92.6167 2.7338
92.6333 2.7438
92.6500 2.7538
92.6667 2.7638
92.6833 2.7738
92.7000 2.7838
92.7167 2.7938
92.7333 2.8038
92.7500 2.8138
92.7667 2.8238
92.7833 2.8338
92.8000 2.8438
92.8167 2.8538
92.8333 2.8638
92.8500 2.8738
92.8667 2.8838
92.8833 2.8938
92.9000 2.9038
92.9167 2.9138
92.9333 2.9238
92.9500 2.9338
92.9667 2.9438
92.9833 2.9538
93.0000 2.9449
93.0167 2.9360
93.0333 2.9271
93.0500 2.9182
93.0667 2.9093
93.0833 2.9004
93.1000 2.8915
93.1167 2.8826
93.1333 2.8737
93.1500 2.8648
93.1667 2.8559
93.1833 2.8470
93.2000 2.8381
93.2167 2.8292
93.2333 2.8203
93.2500 2.8114
93.2667 2.8025
93.2833 2.7936
93.3000 2.7847
93.3167 2.7758
93.3333 2.7669
93.3500 2.7580
93.3667 2.7491
93.3833 2.7402
93.4000 2.7313
93.4167 2.7224
93.4333 2.7135
93.4500 2.7046
93.4667 2.6957
93.4833 2.6868
93.5000 2.6779
93.5167 2.6690
93.5333 2.6601
93.5500 2.6512
93.5667 2.6423
93.5833 2.6334
93.6000 2.6245
93.6167 2.6156
93.6333 2.6067
93.6500 2.5978
93.6667 2.5889
93.6833 2.5800
93.7000 2.5711
93.7167 2.5622
93.7333 2.5533
93.7500 2.5444
93.7667 2.5355
93.7833 2.5266
93.8000 2.5177
93.8167 2.5088
93.8333 2.4999
93.8500 2.4910
93.8667 2.4821
93.8833 2.4732
93.9000 2.4643
93.9167 2.4554
93.9333 2.4465
93.9500 2.4376
93.9667 2.4287
93.9833 2.4198
94.0000 2.4109
94.0167 2.4020
94.0333 2.3931
94.0500 2.3842
94.0667 2.3753
94.0833 2.3664
94.1000 2.3575
94.1167 2.3486
94.1333 2.3397
94.1500 2.3308
94.1667 2.3219
94.1833 2.3130
94.2000 2.3041
94.2167 2.2952
94.2333 2.2863
94.2500 2.2774
94.2667 2.2685
94.2833 2.2596
94.3000 2.2507
94.3167 2.2418
94.3333 2.2329
94.3500 2.2240
94.3667 2.2151
94.3833 2.2062
94.4000 2.1973
94.4167 2.1884
94.4333 2.1795
94.4500 2.1706
94.4667 2.1617
94.4833 2.1528
94.5000 2.1439
94.5167 2.1350
94.5333 2.1261
94.5500 2.1172
94.5667 2.1083
94.5833 2.0994
94.6000 2.0905
94.6167 2.0816
94.6333 2.0727
94.6500 2.0638
94.6667 2.0549
94.6833 2.0460
94.7000 2.0371
94.7167 2.0282
94.7333 2.0193
94.7500 2.0104
94.7667 2.0015
94.7833 1.9926
94.8000 1.9837
94.8167 1.9748
94.8333 1.9659
94.8500 1.9570
94.8667 1.9481
94.8833 1.9392
94.9000 1.9303
94.9167 1.9214
94.9333 1.9125
94.9500 1.9036
94.9667 1.8947
94.9833 1.8858
95.0000 1.8958
95.0167 1.9058
95.0333 1.9158
95.0500 1.9258
95.0667 1.9358
95.0833 1.9458
95.1000 1.9558
95.1167 1.9658
95.1333 1.9758
95.1500 1.9858
95.1667 1.9958
95.1833 2.0058
95.2000 2.0158
95.2167 2.0258
95.2333 2.0358
95.2500 2.0458
95.2667 2.0558
95.2833 2.0658
95.3000 2.0758
95.3167 2.0858
95.3333 2.0958
95.3500 2.1058
95.3667 2.1158
95.3833 2.1258
95.4000 2.1358
95.4167 2.1458
95.4333 2.1558
95.4500 2.1658
95.4667 2.1758
95.4833 2.1858
95.5000 2.1958
95.5167 2.2058
95.5333 2.2158
95.5500 2.2258
95.5667 2.2358
95.5833 2.2458
95.6000 2.2558
95.6167 2.2658
95.6333 2.2758
95.6500 2.2858
95.6667 2.2958
95.6833 2.3058
95.7000 2.3158
95.7167 2.3258
95.7333 2.3358
95.7500 2.3458
95.7667 2.3558
95.7833 2.3658
95.8000 2.3758
95.8167 2.3858
95.8333 2.3958
95.8500 2.4058
95.8667 2.4158
95.8833 2.4258
95.9000 2.4358
95.9167 2.4458
95.9333 2.4558
95.9500 2.4658
95.9667 2.4758
95.9833 2.4858
96.0000 2.4958
96.0167 2.5058
96.0333 2.5158
96.0500 2.5258
96.0667 2.5358
96.0833 2.5458
96.1000 2.5558
96.1167 2.5658
96.1333 2.5758
96.1500 2.5858
96.1667 2.5958
96.1833 2.6058
96.2000 2.6158
96.2167 2.6258
96.2333 2.6358
96.2500 2.6458
96.2667 2.6558
96.2833 2.6658
96.3000 2.6758
96.3167 2.6858
96.3333 2.6958
96.3500 2.7058
96.3667 2.7158
96.3833 2.7258
96.4000 2.7358
96.4167 2.7458
96.4333 2.7558
96.4500 2.7658
96.4667 2.7758
96.4833 2.7858
96.5000 2.7958
96.5167 2.8058
96.5333 2.8158
96.5500 2.8258
96.5667 2.8358
96.5833 2.8458
96.6000 2.8558
96.6167 2.8658
96.6333 2.8758
96.6500 2.8858
96.6667 2.8958
96.6833 2.9058
96.7000 2.9158
96.7167 2.9258
96.7333 2.9358
96.7500 2.9458
96.7667 2.9558
96.7833 2.9658
96.8000 2.9758
96.8167 2.9858
96.8333 2.9958
96.8500 3.0058
96.8667 3.0158
96.8833 3.0258
96.9000 3.0358
96.9167 3.0458
96.9333 3.0558
96.9500 3.0658
96.9667 3.0758
96.9833 3.0858
97.0000 3.0769
97.0167 3.0680
97.0333 3.0591
97.0500 3.0502
97.0667 3.0413
97.0833 3.0324
97.1000 3.0235
97.1167 3.0146
97.1333 3.0057
97.1500 2.9968
97.1667 2.9879
97.1833 2.9790
97.2000 2.9701
97.2167 2.9612
97.2333 2.9523
97.2500 2.9434
97.2667 2.9345
97.2833 2.9256
97.3000 2.9167
97.3167 2.9078
97.3333 2.8989
97.3500 2.8900
97.3667 2.8811
97.3833 2.8722
97.4000 2.8633
97.4167 2.8544
97.4333 2.8455
97.4500 2.8366
97.4667 2.8277
97.4833 2.8188
97.5000 2.8099
97.5167 2.8010
97.5333 2.7921
97.5500 2.7832
97.5667 2.7743
97.5833 2.7654
97.6000 2.7565
97.6167 2.7476
97.6333 2.7387
97.6500 2.7298
97.6667 2.7209
97.6833 2.7120
97.7000 2.7031
97.7167 2.6942
97.7333 2.6853
97.7500 2.6764
97.7667 2.6675
97.7833 2.6586
97.8000 2.6497
97.8167 2.6408
97.8333 2.6319
97.8500 2.6230
97.8667 2.6141
97.8833 2.6052
97.9000 2.5963
97.9167 2.5874
97.9333 2.5785
97.9500 2.5696
97.9667 2.5607
97.9833 2.5518
98.0000 2.5429
98.0167 2.5340
98.0333 2.5251
98.0500 2.5162
98.0667 2.5073
98.0833 2.4984
98.1000 2.4895
98.1167 2.4806
98.1333 2.4717
98.1500 2.4628
98.1667 2.4539
98.1833 2.4450
98.2000 2.4361
98.2167 2.4272
98.2333 2.4183
98.2500 2.4094
98.2667 2.4005
98.2833 2.3916
98.3000 2.3827
98.3167 2.3738
98.3333 2.3649
98.3500 2.3560
98.3667 2.3471
98.3833 2.3382
98.4000 2.3293
98.4167 2.3204
98.4333 2.3115
98.4500 2.3026
98.4667 2.2937
98.4833 2.2848
98.5000 2.2759
98.5167 2.2670
98.5333 2.2581
98.5500 2.2492
98.5667 2.2403
98.5833 2.2314
98.6000 2.2225
98.6167 2.2136
98.6333 2.2047
98.6500 2.1958
98.6667 2.1869
98.6833 2.1780
98.7000 2.1691
98.7167 2.1602
98.7333 2.1513
98.7500 2.1424
98.7667 2.1335
98.7833 2.1246
98.8000 2.1157
98.8167 2.1068
98.8333 2.0979
98.8500 2.0890
98.8667 2.0801
98.8833 2.0712
98.9000 2.0623
98.9167 2.0534
98.9333 2.0445
98.9500 2.0356
98.9667 2.0267
98.9833 2.0178
99.0000 2.0278
99.0167 2.0378
99.0333 2.0478
99.0500 2.0578
99.0667 2.0678
99.0833 2.0778
99.1000 2.0878
99.1167 2.0978
99.1333 2.1078
99.1500 2.1178
99.1667 2.1278
99.1833 2.1378
99.2000 2.1478
99.2167 2.1578
99.2333 2.1678
99.2500 2.1778
99.2667 2.1878
99.2833 2.1978
99.3000 2.2078
99.3167 2.2178
99.3333 2.2278
99.3500 2.2378
99.3667 2.2478
99.3833 2.2578
99.4000 2.2678
99.4167 2.2778
99.4333 2.2878
99.4500 2.2978
99.4667 2.3078
99.4833 2.3178
99.5000 2.3278
99.5167 2.3378
99.5333 2.3478
99.5500 2.3578
99.5667 2.3678
99.5833 2.3778
99.6000 2.3878
99.6167 2.3978
99.6333 2.4078
99.6500 2.4178
99.6667 2.4278
99.6833 2.4378
99.7000 2.4478
99.7167 2.4578
99.7333 2.4678
99.7500 2.4778
99.7667 2.4878
99.7833 2.4978
99.8000 2.5078
99.8167 2.5178
99.8333 2.5278
99.8500 2.5378
99.8667 2.5478
99.8833 2.5578
99.9000 2.5678
99.9167 2.5778
99.9333 2.5878
99.9500 2.5978
99.9667 2.6078
99.9833 2.6178
100.0000 2.6178
100.0167 2.6178
100.0333 2.6178
100.0500 2.6178
100.0667 2.6178
100.0833 2.6178
100.1000 2.6178
100.1167 2.6178
100.1333 2.6178
100.1500 2.6178
100.1667 2.6178
100.1833 2.6178
100.2000 2.6178
100.2167 2.6178
100.2333 2.6178
100.2500 2.6178
100.2667 2.6178
100.2833 2.6178
100.3000 2.6178
100.3167 2.6178
100.3333 2.6178
100.3500 2.6178
100.3667 2.6178
100.3833 2.6178
100.4000 2.6178
100.4167 2.6178
100.4333 2.6178
100.4500 2.6178
100.4667 2.6178
100.4833 2.6178
100.5000 2.6178
100.5167 2.6178
100.5333 2.6178
100.5500 2.6178
100.5667 2.6178
100.5833 2.6178
100.6000 2.6178
100.6167 2.6178
100.6333 2.6178
100.6500 2.6178
100.6667 2.6178
100.6833 2.6178
100.7000 2.6178
100.7167 2.6178
100.7333 2.6178
100.7500 2.6178
100.7667 2.6178
100.7833 2.6178
100.8000 2.6178
100.8167 2.6178
100.8333 2.6178
100.8500 2.6178
100.8667 2.6178
100.8833 2.6178
100.9000 2.6178
100.9167 2.6178
100.9333 2.6178
100.9500 2.6178
100.9667 2.6178
100.9833 2.6178
101.0000 2.6178
101.0167 2.6178
101.0333 2.6178
101.0500 2.6178
101.0667 2.6178
101.0833 2.6178
101.1000 2.6178
101.1167 2.6178
101.1333 2.6178
101.1500 2.6178
101.1667 2.6178
101.1833 2.6178
101.2000 2.6178
101.2167 2.6178
101.2333 2.6178
101.2500 2.6178
101.2667 2.6178
101.2833 2.6178
101.3000 2.6178
101.3167 2.6178
101.3333 2.6178
101.3500 2.6178
101.3667 2.6178
101.3833 2.6178
101.4000 2.6178
101.4167 2.6178
101.4333 2.6178
101.4500 2.6178
101.4667 2.6178
101.4833 2.6178
101.5000 2.6178
101.5167 2.6178
101.5333 2.6178
101.5500 2.6178
101.5667 2.6178
101.5833 2.6178
101.6000 2.6178
101.6167 2.6178
101.6333 2.6178
101.6500 2.6178
101.6667 2.6178
101.6833 2.6178
101.7000 2.6178
101.7167 2.6178
101.7333 2.6178
101.7500 2.6178
101.7667 2.6178
101.7833 2.6178
101.8000 2.6178
101.8167 2.6178
101.8333 2.6178
101.8500 2.6178
101.8667 2.6178
101.8833 2.6178
101.9000 2.6178
101.9167 2.6178
101.9333 2.6178
101.9500 2.6178
101.9667 2.6178
101.9833 2.6178
102.0000 2.6178
102.0167 2.6178
102.0333 2.6178
102.0500 2.6178
102.0667 2.6178
102.0833 2.6178
102.1000 2.6178
102.1167 2.6178
102.1333 2.6178
102.1500 2.6178
102.1667 2.6178
102.1833 2.6178
102.2000 2.6178
102.2167 2.6178
102.2333 2.6178
102.2500 2.6178
102.2667 2.6178
102.2833 2.6178
102.3000 2.6178
102.3167 2.6178
102.3333 2.6178
102.3500 2.6178
102.3667 2.6178
102.3833 2.6178
102.4000 2.6178
102.4167 2.6178
102.4333 2.6178
102.4500 2.6178
102.4667 2.6178
102.4833 2.6178
102.5000 2.6178
102.5167 2.6178
102.5333 2.6178
102.5500 2.6178
102.5667 2.6178
102.5833 2.6178
102.6000 2.6178
102.6167 2.6178
102.6333 2.6178
102.6500 2.6178
102.6667 2.6178
102.6833 2.6178
102.7000 2.6178
102.7167 2.6178
102.7333 2.6178
102.7500 2.6178
102.7667 2.6178
102.7833 2.6178
102.8000 2.6178
102.8167 2.6178
102.8333 2.6178
102.8500 2.6178
102.8667 2.6178
102.8833 2.6178
102.9000 2.6178
102.9167 2.6178
102.9333 2.6178
102.9500 2.6178
102.9667 2.6178
102.9833 2.6178
103.0000 2.6178
103.0167 2.6178
103.0333 2.6178
103.0500 2.6178
103.0667 2.6178
103.0833 2.6178
103.1000 2.6178
103.1167 2.6178
103.1333 2.6178
103.1500 2.6178
103.1667 2.6178
103.1833 2.6178
103.2000 2.6178
103.2167 2.6178
103.2333 2.6178
103.2500 2.6178
103.2667 2.6178
103.2833 2.6178
103.3000 2.6178
103.3167 2.6178
103.3333 2.6178
103.3500 2.6178
103.3667 2.6178
103.3833 2.6178
103.4000 2.6178
103.4167 2.6178
103.4333 2.6178
103.4500 2.6178
103.4667 2.6178
103.4833 2.6178
103.5000 2.6178
103.5167 2.6178
103.5333 2.6178
103.5500 2.6178
103.5667 2.6178
103.5833 2.6178
103.6000 2.6178
103.6167 2.6178
103.6333 2.6178
103.6500 2.6178
103.6667 2.6178
103.6833 2.6178
103.7000 2.6178
103.7167 2.6178
103.7333 2.6178
103.7500 2.6178
103.7667 2.6178
103.7833 2.6178
103.8000 2.6178
103.8167 2.6178
103.8333 2.6178
103.8500 2.6178
103.8667 2.6178
103.8833 2.6178
103.9000 2.6178
103.9167 2.6178
103.9333 2.6178
103.9500 2.6178
103.9667 2.6178
103.9833 2.6178
104.0000 2.6178
104.0167 2.6178
104.0333 2.6178
104.0500 2.6178
104.0667 2.6178
104.0833 2.6178
104.1000 2.6178
104.1167 2.6178
104.1333 2.6178
104.1500 2.6178
104.1667 2.6178
104.1833 2.6178
104.2000 2.6178
104.2167 2.6178
104.2333 2.6178
104.2500 2.6178
104.2667 2.6178
104.2833 2.6178
104.3000 2.6178
104.3167 2.6178
104.3333 2.6178
104.3500 2.6178
104.3667 2.6178
104.3833 2.6178
104.4000 2.6178
104.4167 2.6178
104.4333 2.6178
104.4500 2.6178
104.4667 2.6178
104.4833 2.6178
104.5000 2.6178
104.5167 2.6178
104.5333 2.6178
104.5500 2.6178
104.5667 2.6178
104.5833 2.6178
104.6000 2.6178
104.6167 2.6178
104.6333 2.6178
104.6500 2.6178
104.6667 2.6178
104.6833 2.6178
104.7000 2.6178
104.7167 2.6178
104.7333 2.6178
104.7500 2.6178
104.7667 2.6178
104.7833 2.6178
104.8000 2.6178
104.8167 2.6178
104.8333 2.6178
104.8500 2.6178
104.8667 2.6178
104.8833 2.6178
104.9000 2.6178
104.9167 2.6178
104.9333 2.6178
104.9500 2.6178
104.9667 2.6178
104.9833 2.6178
105.0000 2.6178
105.0167 2.6178
105.0333 2.6178
105.0500 2.6178
105.0667 2.6178
105.0833 2.6178
105.1000 2.6178
105.1167 2.6178
105.1333 2.6178
105.1500 2.6178
105.1667 2.6178
105.1833 2.6178
105.2000 2.6178
105.2167 2.6178
105.2333 2.6178
105.2500 2.6178
105.2667 2.6178
105.2833 2.6178
105.3000 2.6178
105.3167 2.6178
105.3333 2.6178
105.3500 2.6178
105.3667 2.6178
105.3833 2.6178
105.4000 2.6178
105.4167 2.6178
105.4333 2.6178
105.4500 2.6178
105.4667 2.6178
105.4833 2.6178
105.5000 2.6178
105.5167 2.6178
105.5333 2.6178
105.5500 2.6178
105.5667 2.6178
105.5833 2.6178
105.6000 2.6178
105.6167 2.6178
105.6333 2.6178
105.6500 2.6178
105.6667 2.6178
105.6833 2.6178
105.7000 2.6178
105.7167 2.6178
105.7333 2.6178
105.7500 2.6178
105.7667 2.6178
105.7833 2.6178
105.8000 2.6178
105.8167 2.6178
105.8333 2.6178
105.8500 2.6178
105.8667 2.6178
105.8833 2.6178
105.9000 2.6178
105.9167 2.6178
105.9333 2.6178
105.9500 2.6178
105.9667 2.6178
105.9833 2.6178
106.0000 2.6178
106.0167 2.6178
106.0333 2.6178
106.0500 2.6178
106.0667 2.6178
106.0833 2.6178
106.1000 2.6178
106.1167 2.6178
106.1333 2.6178
106.1500 2.6178
106.1667 2.6178
106.1833 2.6178
106.2000 2.6178
106.2167 2.6178
106.2333 2.6178
106.2500 2.6178
106.2667 2.6178
106.2833 2.6178
106.3000 2.6178
106.3167 2.6178
106.3333 2.6178
106.3500 2.6178
106.3667 2.6178
106.3833 2.6178
106.4000 2.6178
106.4167 2.6178
106.4333 2.6178
106.4500 2.6178
106.4667 2.6178
106.4833 2.6178
106.5000 2.6178
106.5167 2.6178
106.5333 2.6178
106.5500 2.6178
106.5667 2.6178
106.5833 2.6178
106.6000 2.6178
106.6167 2.6178
106.6333 2.6178
106.6500 2.6178
106.6667 2.6178
106.6833 2.6178
106.7000 2.6178
106.7167 2.6178
106.7333 2.6178
106.7500 2.6178
106.7667 2.6178
106.7833 2.6178
106.8000 2.6178
106.8167 2.6178
106.8333 2.6178
106.8500 2.6178
106.8667 2.6178
106.8833 2.6178
106.9000 2.6178
106.9167 2.6178
106.9333 2.6178
106.9500 2.6178
106.9667 2.6178
106.9833 2.6178
107.0000 2.6178
107.0167 2.6178
107.0333 2.6178
107.0500 2.6178
107.0667 2.6178
107.0833 2.6178
107.1000 2.6178
107.1167 2.6178
107.1333 2.6178
107.1500 2.6178
107.1667 2.6178
107.1833 2.6178
107.2000 2.6178
107.2167 2.6178
107.2333 2.6178
107.2500 2.6178
107.2667 2.6178
107.2833 2.6178
107.3000 2.6178
107.3167 2.6178
107.3333 2.6178
107.3500 2.6178
107.3667 2.6178
107.3833 2.6178
107.4000 2.6178
107.4167 2.6178
107.4333 2.6178
107.4500 2.6178
107.4667 2.6178
107.4833 2.6178
107.5000 2.6178
107.5167 2.6178
107.5333 2.6178
107.5500 2.6178
107.5667 2.6178
107.5833 2.6178
107.6000 2.6178
107.6167 2.6178
107.6333 2.6178
107.6500 2.6178
107.6667 2.6178
107.6833 2.6178
107.7000 2.6178
107.7167 2.6178
107.7333 2.6178
107.7500 2.6178
107.7667 2.6178
107.7833 2.6178
107.8000 2.6178
107.8167 2.6178
107.8333 2.6178
107.8500 2.6178
107.8667 2.6178
107.8833 2.6178
107.9000 2.6178
107.9167 2.6178
107.9333 2.6178
107.9500 2.6178
107.9667 2.6178
107.9833 2.6178
108.0000 2.6178
108.0167 2.6178
108.0333 2.6178
108.0500 2.6178
108.0667 2.6178
108.0833 2.6178
108.1000 2.6178
108.1167 2.6178
108.1333 2.6178
108.1500 2.6178
108.1667 2.6178
108.1833 2.6178
108.2000 2.6178
108.2167 2.6178
108.2333 2.6178
108.2500 2.6178
108.2667 2.6178
108.2833 2.6178
108.3000 2.6178
108.3167 2.6178
108.3333 2.6178
108.3500 2.6178
108.3667 2.6178
108.3833 2.6178
108.4000 2.6178
108.4167 2.6178
108.4333 2.6178
108.4500 2.6178
108.4667 2.6178
108.4833 2.6178
108.5000 2.6178
108.5167 2.6178
108.5333 2.6178
108.5500 2.6178
108.5667 2.6178
108.5833 2.6178
108.6000 2.6178
108.6167 2.6178
108.6333 2.6178
108.6500 2.6178
108.6667 2.6178
108.6833 2.6178
108.7000 2.6178
108.7167 2.6178
108.7333 2.6178
108.7500 2.6178
108.7667 2.6178
108.7833 2.6178
108.8000 2.6178
108.8167 2.6178
108.8333 2.6178
108.8500 2.6178
108.8667 2.6178
108.8833 2.6178
108.9000 2.6178
108.9167 2.6178
108.9333 2.6178
108.9500 2.6178
108.9667 2.6178
108.9833 2.6178
109.0000 2.6178
109.0167 2.6178
109.0333 2.6178
109.0500 2.6178
109.0667 2.6178
109.0833 2.6178
109.1000 2.6178
109.1167 2.6178
109.1333 2.6178
109.1500 2.6178
109.1667 2.6178
109.1833 2.6178
109.2000 2.6178
109.2167 2.6178
109.2333 2.6178
109.2500 2.6178
109.2667 2.6178
109.2833 2.6178
109.3000 2.6178
109.3167 2.6178
109.3333 2.6178
109.3500 2.6178
109.3667 2.6178
109.3833 2.6178
109.4000 2.6178
109.4167 2.6178
109.4333 2.6178
109.4500 2.6178
109.4667 2.6178
109.4833 2.6178
109.5000 2.6178
109.5167 2.6178
109.5333 2.6178
109.5500 2.6178
109.5667 2.6178
109.5833 2.6178
109.6000 2.6178
109.6167 2.6178
109.6333 2.6178
109.6500 2.6178
109.6667 2.6178
109.6833 2.6178
109.7000 2.6178
109.7167 2.6178
109.7333 2.6178
109.7500 2.6178
109.7667 2.6178
109.7833 2.6178
109.8000 2.6178
109.8167 2.6178
109.8333 2.6178
109.8500 2.6178
109.8667 2.6178
109.8833 2.6178
109.9000 2.6178
109.9167 2.6178
109.9333 2.6178
109.9500 2.6178
109.9667 2.6178
109.9833 2.6178
110.0000 2.6178
110.0167 2.6178
110.0333 2.6178
110.0500 2.6178
110.0667 2.6178
110.0833 2.6178
110.1000 2.6178
110.1167 2.6178
110.1333 2.6178
110.1500 2.6178
110.1667 2.6178
110.1833 2.6178
110.2000 2.6178
110.2167 2.6178
110.2333 2.6178
110.2500 2.6178
110.2667 2.6178
110.2833 2.6178
110.3000 2.6178
110.3167 2.6178
110.3333 2.6178
110.3500 2.6178
110.3667 2.6178
110.3833 2.6178
110.4000 2.6178
110.4167 2.6178
110.4333 2.6178
110.4500 2.6178
110.4667 2.6178
110.4833 2.6178
110.5000 2.6178
110.5167 2.6178
110.5333 2.6178
110.5500 2.6178
110.5667 2.6178
110.5833 2.6178
110.6000 2.6178
110.6167 2.6178
110.6333 2.6178
110.6500 2.6178
110.6667 2.6178
110.6833 2.6178
110.7000 2.6178
110.7167 2.6178
110.7333 2.6178
110.7500 2.6178
110.7667 2.6178
110.7833 2.6178
110.8000 2.6178
110.8167 2.6178
110.8333 2.6178
110.8500 2.6178
110.8667 2.6178
110.8833 2.6178
110.9000 2.6178
110.9167 2.6178
110.9333 2.6178
110.9500 2.6178
110.9667 2.6178
110.9833 2.6178
111.0000 2.6178
111.0167 2.6178
111.0333 2.6178
111.0500 2.6178
111.0667 2.6178
111.0833 2.6178
111.1000 2.6178
111.1167 2.6178
111.1333 2.6178
111.1500 2.6178
111.1667 2.6178
111.1833 2.6178
111.2000 2.6178
111.2167 2.6178
111.2333 2.6178
111.2500 2.6178
111.2667 2.6178
111.2833 2.6178
111.3000 2.6178
111.3167 2.6178
111.3333 2.6178
111.3500 2.6178
111.3667 2.6178
111.3833 2.6178
111.4000 2.6178
111.4167 2.6178
111.4333 2.6178
111.4500 2.6178
111.4667 2.6178
111.4833 2.6178
111.5000 2.6178
111.5167 2.6178
111.5333 2.6178
111.5500 2.6178
111.5667 2.6178
111.5833 2.6178
111.6000 2.6178
111.6167 2.6178
111.6333 2.6178
111.6500 2.6178
111.6667 2.6178
111.6833 2.6178
111.7000 2.6178
111.7167 2.6178
111.7333 2.6178
111.7500 2.6178
111.7667 2.6178
111.7833 2.6178
111.8000 2.6178
111.8167 2.6178
111.8333 2.6178
111.8500 2.6178
111.8667 2.6178
111.8833 2.6178
111.9000 2.6178
111.9167 2.6178
111.9333 2.6178
111.9500 2.6178
111.9667 2.6178
111.9833 2.6178
112.0000 2.6178
112.0167 2.6178
112.0333 2.6178
112.0500 2.6178
112.0667 2.6178
112.0833 2.6178
112.1000 2.6178
112.1167 2.6178
112.1333 2.6178
112.1500 2.6178
112.1667 2.6178
112.1833 2.6178
112.2000 2.6178
112.2167 2.6178
112.2333 2.6178
112.2500 2.6178
112.2667 2.6178
112.2833 2.6178
112.3000 2.6178
112.3167 2.6178
112.3333 2.6178
112.3500 2.6178
112.3667 2.6178
112.3833 2.6178
112.4000 2.6178
112.4167 2.6178
112.4333 2.6178
112.4500 2.6178
112.4667 2.6178
112.4833 2.6178
112.5000 2.6178
112.5167 2.6178
112.5333 2.6178
112.5500 2.6178
112.5667 2.6178
112.5833 2.6178
112.6000 2.6178
112.6167 2.6178
112.6333 2.6178
112.6500 2.6178
112.6667 2.6178
112.6833 2.6178
112.7000 2.6178
112.7167 2.6178
112.7333 2.6178
112.7500 2.6178
112.7667 2.6178
112.7833 2.6178
112.8000 2.6178
112.8167 2.6178
112.8333 2.6178
112.8500 2.6178
112.8667 2.6178
112.8833 2.6178
112.9000 2.6178
112.9167 2.6178
112.9333 2.6178
112.9500 2.6178
112.9667 2.6178
112.9833 2.6178
113.0000 2.6178
113.0167 2.6178
113.0333 2.6178
113.0500 2.6178
113.0667 2.6178
113.0833 2.6178
113.1000 2.6178
113.1167 2.6178
113.1333 2.6178
113.1500 2.6178
113.1667 2.6178
113.1833 2.6178
113.2000 2.6178
113.2167 2.6178
113.2333 2.6178
113.2500 2.6178
113.2667 2.6178
113.2833 2.6178
113.3000 2.6178
113.3167 2.6178
113.3333 2.6178
113.3500 2.6178
113.3667 2.6178
113.3833 2.6178
113.4000 2.6178
113.4167 2.6178
113.4333 2.6178
113.4500 2.6178
113.4667 2.6178
113.4833 2.6178
113.5000 2.6178
113.5167 2.6178
113.5333 2.6178
113.5500 2.6178
113.5667 2.6178
113.5833 2.6178
113.6000 2.6178
113.6167 2.6178
113.6333 2.6178
113.6500 2.6178
113.6667 2.6178
113.6833 2.6178
113.7000 2.6178
113.7167 2.6178
113.7333 2.6178
113.7500 2.6178
113.7667 2.6178
113.7833 2.6178
113.8000 2.6178
113.8167 2.6178
113.8333 2.6178
113.8500 2.6178
113.8667 2.6178
113.8833 2.6178
113.9000 2.6178
113.9167 2.6178
113.9333 2.6178
113.9500 2.6178
113.9667 2.6178
113.9833 2.6178
114.0000 2.6178
114.0167 2.6178
114.0333 2.6178
114.0500 2.6178
114.0667 2.6178
114.0833 2.6178
114.1000 2.6178
114.1167 2.6178
114.1333 2.6178
114.1500 2.6178
114.1667 2.6178
114.1833 2.6178
114.2000 2.6178
114.2167 2.6178
114.2333 2.6178
114.2500 2.6178
114.2667 2.6178
114.2833 2.6178
114.3000 2.6178
114.3167 2.6178
114.3333 2.6178
114.3500 2.6178
114.3667 2.6178
114.3833 2.6178
114.4000 2.6178
114.4167 2.6178
114.4333 2.6178
114.4500 2.6178
114.4667 2.6178
114.4833 2.6178
114.5000 2.6178
114.5167 2.6178
114.5333 2.6178
114.5500 2.6178
114.5667 2.6178
114.5833 2.6178
114.6000 2.6178
114.6167 2.6178
114.6333 2.6178
114.6500 2.6178
114.6667 2.6178
114.6833 2.6178
114.7000 2.6178
114.7167 2.6178
114.7333 2.6178
114.7500 2.6178
114.7667 2.6178
114.7833 2.6178
114.8000 2.6178
114.8167 2.6178
114.8333 2.6178
114.8500 2.6178
114.8667 2.6178
114.8833 2.6178
114.9000 2.6178
114.9167 2.6178
114.9333 2.6178
114.9500 2.6178
114.9667 2.6178
114.9833 2.6178
115.0000 2.6178
115.0167 2.6178
115.0333 2.6178
115.0500 2.6178
115.0667 2.6178
115.0833 2.6178
115.1000 2.6178
115.1167 2.6178
115.1333 2.6178
115.1500 2.6178
115.1667 2.6178
115.1833 2.6178
115.2000 2.6178
115.2167 2.6178
115.2333 2.6178
115.2500 2.6178
115.2667 2.6178
115.2833 2.6178
115.3000 2.6178
115.3167 2.6178
115.3333 2.6178
115.3500 2.6178
115.3667 2.6178
115.3833 2.6178
115.4000 2.6178
115.4167 2.6178
115.4333 2.6178
115.4500 2.6178
115.4667 2.6178
115.4833 2.6178
115.5000 2.6178
115.5167 2.6178
115.5333 2.6178
115.5500 2.6178
115.5667 2.6178
115.5833 2.6178
115.6000 2.6178
115.6167 2.6178
115.6333 2.6178
115.6500 2.6178
115.6667 2.6178
115.6833 2.6178
115.7000 2.6178
115.7167 2.6178
115.7333 2.6178
115.7500 2.6178
115.7667 2.6178
115.7833 2.6178
115.8000 2.6178
115.8167 2.6178
115.8333 2.6178
115.8500 2.6178
115.8667 2.6178
115.8833 2.6178
115.9000 2.6178
115.9167 2.6178
115.9333 2.6178
115.9500 2.6178
115.9667 2.6178
115.9833 2.6178
116.0000 2.6178
116.0167 2.6178
116.0333 2.6178
116.0500 2.6178
116.0667 2.6178
116.0833 2.6178
116.1000 2.6178
116.1167 2.6178
116.1333 2.6178
116.1500 2.6178
116.1667 2.6178
116.1833 2.6178
116.2000 2.6178
116.2167 2.6178
116.2333 2.6178
116.2500 2.6178
116.2667 2.6178
116.2833 2.6178
116.3000 2.6178
116.3167 2.6178
116.3333 2.6178
116.3500 2.6178
116.3667 2.6178
116.3833 2.6178
116.4000 2.6178
116.4167 2.6178
116.4333 2.6178
116.4500 2.6178
116.4667 2.6178
116.4833 2.6178
116.5000 2.6178
116.5167 2.6178
116.5333 2.6178
116.5500 2.6178
116.5667 2.6178
116.5833 2.6178
116.6000 2.6178
116.6167 2.6178
116.6333 2.6178
116.6500 2.6178
116.6667 2.6178
116.6833 2.6178
116.7000 2.6178
116.7167 2.6178
116.7333 2.6178
116.7500 2.6178
116.7667 2.6178
116.7833 2.6178
116.8000 2.6178
116.8167 2.6178
116.8333 2.6178
116.8500 2.6178
116.8667 2.6178
116.8833 2.6178
116.9000 2.6178
116.9167 2.6178
116.9333 2.6178
116.9500 2.6178
116.9667 2.6178
116.9833 2.6178
117.0000 2.6178
117.0167 2.6178
117.0333 2.6178
117.0500 2.6178
117.0667 2.6178
117.0833 2.6178
117.1000 2.6178
117.1167 2.6178
117.1333 2.6178
117.1500 2.6178
117.1667 2.6178
117.1833 2.6178
117.2000 2.6178
117.2167 2.6178
117.2333 2.6178
117.2500 2.6178
117.2667 2.6178
117.2833 2.6178
117.3000 2.6178
117.3167 2.6178
117.3333 2.6178
117.3500 2.6178
117.3667 2.6178
117.3833 2.6178
117.4000 2.6178
117.4167 2.6178
117.4333 2.6178
117.4500 2.6178
117.4667 2.6178
117.4833 2.6178
117.5000 2.6178
117.5167 2.6178
117.5333 2.6178
117.5500 2.6178
117.5667 2.6178
117.5833 2.6178
117.6000 2.6178
117.6167 2.6178
117.6333 2.6178
117.6500 2.6178
117.6667 2.6178
117.6833 2.6178
117.7000 2.6178
117.7167 2.6178
117.7333 2.6178
117.7500 2.6178
117.7667 2.6178
117.7833 2.6178
117.8000 2.6178
117.8167 2.6178
117.8333 2.6178
117.8500 2.6178
117.8667 2.6178
117.8833 2.6178
117.9000 2.6178
117.9167 2.6178
117.9333 2.6178
117.9500 2.6178
117.9667 2.6178
117.9833 2.6178
118.0000 2.6178
118.0167 2.6178
118.0333 2.6178
118.0500 2.6178
118.0667 2.6178
118.0833 2.6178
118.1000 2.6178
118.1167 2.6178
118.1333 2.6178
118.1500 2.6178
118.1667 2.6178
118.1833 2.6178
118.2000 2.6178
118.2167 2.6178
118.2333 2.6178
118.2500 2.6178
118.2667 2.6178
118.2833 2.6178
118.3000 2.6178
118.3167 2.6178
118.3333 2.6178
118.3500 2.6178
118.3667 2.6178
118.3833 2.6178
118.4000 2.6178
118.4167 2.6178
118.4333 2.6178
118.4500 2.6178
118.4667 2.6178
118.4833 2.6178
118.5000 2.6178
118.5167 2.6178
118.5333 2.6178
118.5500 2.6178
118.5667 2.6178
118.5833 2.6178
118.6000 2.6178
118.6167 2.6178
118.6333 2.6178
118.6500 2.6178
118.6667 2.6178
118.6833 2.6178
118.7000 2.6178
118.7167 2.6178
118.7333 2.6178
118.7500 2.6178
118.7667 2.6178
118.7833 2.6178
118.8000 2.6178
118.8167 2.6178
118.8333 2.6178
118.8500 2.6178
118.8667 2.6178
118.8833 2.6178
118.9000 2.6178
118.9167 2.6178
118.9333 2.6178
118.9500 2.6178
118.9667 2.6178
118.9833 2.6178
119.0000 2.6178
119.0167 2.6178
119.0333 2.6178
119.0500 2.6178
119.0667 2.6178
119.0833 2.6178
119.1000 2.6178
119.1167 2.6178
119.1333 2.6178
119.1500 2.6178
119.1667 2.6178
119.1833 2.6178
119.2000 2.6178
119.2167 2.6178
119.2333 2.6178
119.2500 2.6178
119.2667 2.6178
119.2833 2.6178
119.3000 2.6178
119.3167 2.6178
119.3333 2.6178
119.3500 2.6178
119.3667 2.6178
119.3833 2.6178
119.4000 2.6178
119.4167 2.6178
119.4333 2.6178
119.4500 2.6178
119.4667 2.6178
119.4833 2.6178
119.5000 2.6178
119.5167 2.6178
119.5333 2.6178
119.5500 2.6178
119.5667 2.6178
119.5833 2.6178
119.6000 2.6178
119.6167 2.6178
119.6333 2.6178
119.6500 2.6178
119.6667 2.6178
119.6833 2.6178
119.7000 2.6178
119.7167 2.6178
119.7333 2.6178
119.7500 2.6178
119.7667 2.6178
119.7833 2.6178
119.8000 2.6178
119.8167 2.6178
119.8333 2.6178
119.8500 2.6178
119.8667 2.6178
119.8833 2.6178
119.9000 2.6178
119.9167 2.6178
119.9333 2.6178
119.9500 2.6178
119.9667 2.6178
119.9833 2.6178
120.0000 2.6178
