time [s] Activity [arb units]
0.0000 0.0932
0.5000 0.1106
1.0000 0.1277
1.5000 0.1444
2.0000 0.1608
2.5000 0.1769
3.0000 0.1926
3.5000 0.2081
4.0000 0.2232
4.5000 0.2381
5.0000 0.2527
5.5000 0.2669
6.0000 0.2810
6.5000 0.2947
7.0000 0.3081
7.5000 0.3213
8.0000 0.3343
8.5000 0.3470
9.0000 0.3594
9.5000 0.3716
10.0000 0.3835
10.5000 0.3952
11.0000 0.4067
11.5000 0.4180
12.0000 0.4290
12.5000 0.4398
13.0000 0.4504
13.5000 0.4608
14.0000 0.4710
14.5000 0.4810
15.0000 0.4908
15.5000 0.5004
16.0000 0.5098
16.5000 0.5190
17.0000 0.5280
17.5000 0.5369
18.0000 0.5455
18.5000 0.5540
19.0000 0.5623
19.5000 0.5705
20.0000 0.5785
20.5000 0.5863
21.0000 0.5940
21.5000 0.6015
22.0000 0.6089
22.5000 0.6161
23.0000 0.6232
23.5000 0.6301
24.0000 0.6369
24.5000 0.6436
25.0000 0.6501
25.5000 0.6565
26.0000 0.6627
26.5000 0.6689
27.0000 0.6749
27.5000 0.6807
28.0000 0.6865
28.5000 0.6921
29.0000 0.6977
29.5000 3.0606
30.0000 2.4251
30.5000 2.0475
31.0000 1.8310
31.5000 1.6817
32.0000 1.5696
32.5000 1.4836
33.0000 1.4173
33.5000 1.3663
34.0000 1.3271
34.5000 1.2970
35.0000 1.2741
35.5000 1.2568
36.0000 1.2438
36.5000 1.2341
37.0000 1.2270
37.5000 1.2218
38.0000 1.2182
38.5000 1.2158
39.0000 1.2143
39.5000 1.2135
40.0000 1.2132
40.5000 1.2133
41.0000 1.2137
41.5000 1.2144
42.0000 1.2151
42.5000 1.2160
43.0000 1.2169
43.5000 1.2179
44.0000 1.2189
44.5000 1.2200
45.0000 1.2210
45.5000 1.2220
46.0000 1.2229
46.5000 1.2239
47.0000 1.2248
47.5000 1.2256
48.0000 1.2264
48.5000 1.2272
49.0000 1.2280
49.5000 1.2287
50.0000 1.2293
50.5000 1.2300
51.0000 1.2305
51.5000 1.2311
52.0000 1.2316
52.5000 1.2320
53.0000 1.2324
53.5000 1.2328
54.0000 1.2331
54.5000 1.2334
55.0000 1.2337
55.5000 1.2339
56.0000 1.2341
56.5000 1.2343
57.0000 1.2344
57.5000 1.2345
58.0000 1.2345
58.5000 1.2346
59.0000 1.2346
59.5000 3.5921
60.0000 2.9512
60.5000 2.5683
61.0000 2.3466
61.5000 2.1921
62.0000 2.0751
62.5000 1.9841
63.0000 1.9129
63.5000 1.8570
64.0000 1.8130
64.5000 1.7783
65.0000 1.7508
65.5000 1.7289
66.0000 1.7114
66.5000 1.6973
67.0000 1.6858
67.5000 1.6764
68.0000 1.6686
68.5000 1.6620
69.0000 1.6564
69.5000 1.6515
70.0000 1.6472
70.5000 1.6434
71.0000 1.6399
71.5000 1.6367
72.0000 1.6337
72.5000 1.6308
73.0000 1.6281
73.5000 1.6255
74.0000 1.6229
74.5000 1.6204
75.0000 1.6179
75.5000 1.6155
76.0000 1.6131
76.5000 1.6107
77.0000 1.6083
77.5000 1.6059
78.0000 1.6035
78.5000 1.6012
79.0000 1.5988
79.5000 1.5964
80.0000 1.5940
80.5000 1.5917
81.0000 1.5893
81.5000 1.5869
82.0000 1.5845
82.5000 1.5821
83.0000 1.5797
83.5000 1.5773
84.0000 1.5749
84.5000 1.5725
85.0000 1.5701
85.5000 1.5677
86.0000 1.5653
86.5000 1.5629
87.0000 1.5605
87.5000 1.5581
88.0000 1.5556
88.5000 1.5532
89.0000 1.5508
89.5000 1.5484
90.0000 1.5459
90.5000 1.5435
91.0000 1.5411
91.5000 1.5387
92.0000 1.5362
92.5000 1.5338
93.0000 1.5314
93.5000 1.5290
94.0000 1.5265
94.5000 1.5241
95.0000 1.5217
95.5000 1.5193
96.0000 1.5168
96.5000 1.5144
97.0000 1.5120
97.5000 1.5096
98.0000 1.5072
98.5000 1.5047
99.0000 1.5023
99.5000 1.4999
100.0000 1.4975
100.5000 1.4951
101.0000 1.4927
101.5000 1.4903
102.0000 1.4879
102.5000 1.4855
103.0000 1.4831
103.5000 1.4807
104.0000 1.4783
104.5000 1.4759
105.0000 1.4735
105.5000 1.4711
106.0000 1.4687
106.5000 1.4663
107.0000 1.4640
107.5000 1.4616
108.0000 1.4592
108.5000 1.4569
109.0000 1.4545
109.5000 1.4521
110.0000 1.4498
110.5000 1.4474
111.0000 1.4451
111.5000 1.4427
112.0000 1.4404
112.5000 1.4380
113.0000 1.4357
113.5000 1.4334
114.0000 1.4310
114.5000 1.4287
115.0000 1.4264
115.5000 1.4241
116.0000 1.4218
116.5000 1.4195
117.0000 1.4172
117.5000 1.4149
118.0000 1.4126
118.5000 1.4103
119.0000 1.4080
119.5000 1.4057
120.0000 1.4035
120.5000 1.4012
121.0000 1.3989
121.5000 1.3967
122.0000 1.3944
122.5000 1.3921
123.0000 1.3899
123.5000 1.3877
124.0000 1.3854
124.5000 1.3832
125.0000 1.3810
125.5000 1.3787
126.0000 1.3765
126.5000 1.3743
127.0000 1.3721
127.5000 1.3699
128.0000 1.3677
128.5000 1.3655
129.0000 1.3633
129.5000 1.3611
130.0000 1.3590
130.5000 1.3568
131.0000 1.3546
131.5000 1.3525
132.0000 1.3503
132.5000 1.3481
133.0000 1.3460
133.5000 1.3439
134.0000 1.3417
134.5000 1.3396
135.0000 1.3375
135.5000 1.3353
136.0000 1.3332
136.5000 1.3311
137.0000 1.3290
137.5000 1.3269
138.0000 1.3248
138.5000 1.3227
139.0000 1.3206
139.5000 1.3186
140.0000 1.3165
140.5000 1.3144
141.0000 1.3124
141.5000 1.3103
142.0000 1.3083
142.5000 1.3062
143.0000 1.3042
143.5000 1.3021
144.0000 1.3001
144.5000 1.2981
145.0000 1.2961
145.5000 1.2940
146.0000 1.2920
146.5000 1.2900
147.0000 1.2880
147.5000 1.2860
148.0000 1.2841
148.5000 1.2821
149.0000 1.2801
149.5000 1.2781
150.0000 1.2762
150.5000 1.2742
151.0000 1.2722
151.5000 1.2703
152.0000 1.2683
152.5000 1.2664
153.0000 1.2645
153.5000 1.2625
154.0000 1.2606
154.5000 1.2587
155.0000 1.2568
155.5000 1.2549
156.0000 1.2530
156.5000 1.2511
157.0000 1.2492
157.5000 1.2473
158.0000 1.2454
158.5000 1.2435
159.0000 1.2417
159.5000 1.2398
160.0000 1.2379
160.5000 1.2361
161.0000 1.2342
161.5000 1.2324
162.0000 1.2305
162.5000 1.2287
163.0000 1.2269
163.5000 1.2251
164.0000 1.2232
164.5000 1.2214
165.0000 1.2196
165.5000 1.2178
166.0000 1.2160
166.5000 1.2142
167.0000 1.2124
167.5000 1.2106
168.0000 1.2089
168.5000 1.2071
169.0000 1.2053
169.5000 1.2036
170.0000 1.2018
170.5000 1.2000
171.0000 1.1983
171.5000 1.1966
172.0000 1.1948
172.5000 1.1931
173.0000 1.1914
173.5000 1.1896
174.0000 1.1879
174.5000 1.1862
175.0000 1.1845
175.5000 1.1828
176.0000 1.1811
176.5000 1.1794
177.0000 1.1777
177.5000 1.1760
178.0000 1.1743
178.5000 1.1727
179.0000 1.1710
179.5000 1.1693
180.0000 1.1677
180.5000 1.1660
181.0000 1.1644
181.5000 1.1627
182.0000 1.1611
182.5000 1.1594
183.0000 1.1578
183.5000 1.1562
184.0000 1.1545
184.5000 1.1529
185.0000 1.1513
185.5000 1.1497
186.0000 1.1481
186.5000 1.1465
187.0000 1.1449
187.5000 1.1433
188.0000 1.1417
188.5000 1.1402
189.0000 1.1386
189.5000 1.1370
190.0000 1.1354
190.5000 1.1339
191.0000 1.1323
191.5000 1.1308
192.0000 1.1292
192.5000 1.1277
193.0000 1.1261
193.5000 1.1246
194.0000 1.1231
194.5000 1.1215
195.0000 1.1200
195.5000 1.1185
196.0000 1.1170
196.5000 1.1155
197.0000 1.1139
197.5000 1.1124
198.0000 1.1110
198.5000 1.1095
199.0000 1.1080
199.5000 1.1065
200.0000 1.1050
